#  E (eV)   dos(E)     Int dos(E) EFermi =    5.981 eV
 -26.000  0.0000E+00  0.0000E+00
 -25.990  0.0000E+00  0.0000E+00
 -25.980  0.0000E+00  0.0000E+00
 -25.970  0.0000E+00  0.0000E+00
 -25.960  0.0000E+00  0.0000E+00
 -25.950  0.0000E+00  0.0000E+00
 -25.940  0.0000E+00  0.0000E+00
 -25.930  0.0000E+00  0.0000E+00
 -25.920  0.0000E+00  0.0000E+00
 -25.910  0.0000E+00  0.0000E+00
 -25.900  0.0000E+00  0.0000E+00
 -25.890  0.0000E+00  0.0000E+00
 -25.880  0.0000E+00  0.0000E+00
 -25.870  0.0000E+00  0.0000E+00
 -25.860  0.0000E+00  0.0000E+00
 -25.850  0.0000E+00  0.0000E+00
 -25.840  0.0000E+00  0.0000E+00
 -25.830  0.0000E+00  0.0000E+00
 -25.820  0.0000E+00  0.0000E+00
 -25.810  0.0000E+00  0.0000E+00
 -25.800  0.0000E+00  0.0000E+00
 -25.790  0.0000E+00  0.0000E+00
 -25.780  0.0000E+00  0.0000E+00
 -25.770  0.0000E+00  0.0000E+00
 -25.760  0.0000E+00  0.0000E+00
 -25.750  0.0000E+00  0.0000E+00
 -25.740  0.0000E+00  0.0000E+00
 -25.730  0.0000E+00  0.0000E+00
 -25.720  0.0000E+00  0.0000E+00
 -25.710  0.0000E+00  0.0000E+00
 -25.700  0.0000E+00  0.0000E+00
 -25.690  0.0000E+00  0.0000E+00
 -25.680  0.0000E+00  0.0000E+00
 -25.670  0.0000E+00  0.0000E+00
 -25.660  0.0000E+00  0.0000E+00
 -25.650  0.0000E+00  0.0000E+00
 -25.640  0.0000E+00  0.0000E+00
 -25.630  0.0000E+00  0.0000E+00
 -25.620  0.0000E+00  0.0000E+00
 -25.610  0.0000E+00  0.0000E+00
 -25.600  0.0000E+00  0.0000E+00
 -25.590  0.0000E+00  0.0000E+00
 -25.580  0.0000E+00  0.0000E+00
 -25.570  0.0000E+00  0.0000E+00
 -25.560  0.0000E+00  0.0000E+00
 -25.550  0.0000E+00  0.0000E+00
 -25.540  0.0000E+00  0.0000E+00
 -25.530  0.0000E+00  0.0000E+00
 -25.520  0.0000E+00  0.0000E+00
 -25.510  0.0000E+00  0.0000E+00
 -25.500  0.0000E+00  0.0000E+00
 -25.490  0.0000E+00  0.0000E+00
 -25.480  0.0000E+00  0.0000E+00
 -25.470  0.0000E+00  0.0000E+00
 -25.460  0.0000E+00  0.0000E+00
 -25.450  0.0000E+00  0.0000E+00
 -25.440  0.0000E+00  0.0000E+00
 -25.430  0.0000E+00  0.0000E+00
 -25.420  0.0000E+00  0.0000E+00
 -25.410  0.0000E+00  0.0000E+00
 -25.400  0.0000E+00  0.0000E+00
 -25.390  0.0000E+00  0.0000E+00
 -25.380  0.0000E+00  0.0000E+00
 -25.370  0.0000E+00  0.0000E+00
 -25.360  0.0000E+00  0.0000E+00
 -25.350  0.0000E+00  0.0000E+00
 -25.340  0.0000E+00  0.0000E+00
 -25.330  0.0000E+00  0.0000E+00
 -25.320  0.0000E+00  0.0000E+00
 -25.310  0.0000E+00  0.0000E+00
 -25.300  0.0000E+00  0.0000E+00
 -25.290  0.0000E+00  0.0000E+00
 -25.280  0.0000E+00  0.0000E+00
 -25.270  0.0000E+00  0.0000E+00
 -25.260  0.0000E+00  0.0000E+00
 -25.250  0.0000E+00  0.0000E+00
 -25.240  0.0000E+00  0.0000E+00
 -25.230  0.0000E+00  0.0000E+00
 -25.220  0.0000E+00  0.0000E+00
 -25.210  0.0000E+00  0.0000E+00
 -25.200  0.0000E+00  0.0000E+00
 -25.190  0.0000E+00  0.0000E+00
 -25.180  0.0000E+00  0.0000E+00
 -25.170  0.0000E+00  0.0000E+00
 -25.160  0.0000E+00  0.0000E+00
 -25.150  0.0000E+00  0.0000E+00
 -25.140  0.0000E+00  0.0000E+00
 -25.130  0.0000E+00  0.0000E+00
 -25.120  0.0000E+00  0.0000E+00
 -25.110  0.0000E+00  0.0000E+00
 -25.100  0.0000E+00  0.0000E+00
 -25.090  0.0000E+00  0.0000E+00
 -25.080  0.0000E+00  0.0000E+00
 -25.070  0.0000E+00  0.0000E+00
 -25.060  0.0000E+00  0.0000E+00
 -25.050  0.0000E+00  0.0000E+00
 -25.040  0.0000E+00  0.0000E+00
 -25.030  0.0000E+00  0.0000E+00
 -25.020  0.0000E+00  0.0000E+00
 -25.010  0.0000E+00  0.0000E+00
 -25.000  0.0000E+00  0.0000E+00
 -24.990  0.0000E+00  0.0000E+00
 -24.980  0.0000E+00  0.0000E+00
 -24.970  0.0000E+00  0.0000E+00
 -24.960  0.0000E+00  0.0000E+00
 -24.950  0.0000E+00  0.0000E+00
 -24.940  0.0000E+00  0.0000E+00
 -24.930  0.0000E+00  0.0000E+00
 -24.920  0.0000E+00  0.0000E+00
 -24.910  0.0000E+00  0.0000E+00
 -24.900  0.0000E+00  0.0000E+00
 -24.890  0.0000E+00  0.0000E+00
 -24.880  0.0000E+00  0.0000E+00
 -24.870  0.0000E+00  0.0000E+00
 -24.860  0.0000E+00  0.0000E+00
 -24.850  0.0000E+00  0.0000E+00
 -24.840  0.0000E+00  0.0000E+00
 -24.830  0.0000E+00  0.0000E+00
 -24.820  0.0000E+00  0.0000E+00
 -24.810  0.0000E+00  0.0000E+00
 -24.800  0.0000E+00  0.0000E+00
 -24.790  0.0000E+00  0.0000E+00
 -24.780  0.0000E+00  0.0000E+00
 -24.770  0.0000E+00  0.0000E+00
 -24.760  0.0000E+00  0.0000E+00
 -24.750  0.0000E+00  0.0000E+00
 -24.740  0.0000E+00  0.0000E+00
 -24.730  0.0000E+00  0.0000E+00
 -24.720  0.0000E+00  0.0000E+00
 -24.710  0.0000E+00  0.0000E+00
 -24.700  0.0000E+00  0.0000E+00
 -24.690  0.0000E+00  0.0000E+00
 -24.680  0.0000E+00  0.0000E+00
 -24.670  0.0000E+00  0.0000E+00
 -24.660  0.0000E+00  0.0000E+00
 -24.650  0.0000E+00  0.0000E+00
 -24.640  0.0000E+00  0.0000E+00
 -24.630  0.0000E+00  0.0000E+00
 -24.620  0.0000E+00  0.0000E+00
 -24.610  0.0000E+00  0.0000E+00
 -24.600  0.0000E+00  0.0000E+00
 -24.590  0.0000E+00  0.0000E+00
 -24.580  0.0000E+00  0.0000E+00
 -24.570  0.0000E+00  0.0000E+00
 -24.560  0.0000E+00  0.0000E+00
 -24.550  0.0000E+00  0.0000E+00
 -24.540  0.0000E+00  0.0000E+00
 -24.530  0.0000E+00  0.0000E+00
 -24.520  0.0000E+00  0.0000E+00
 -24.510  0.0000E+00  0.0000E+00
 -24.500  0.0000E+00  0.0000E+00
 -24.490  0.0000E+00  0.0000E+00
 -24.480  0.0000E+00  0.0000E+00
 -24.470  0.0000E+00  0.0000E+00
 -24.460  0.0000E+00  0.0000E+00
 -24.450  0.0000E+00  0.0000E+00
 -24.440  0.0000E+00  0.0000E+00
 -24.430  0.0000E+00  0.0000E+00
 -24.420  0.0000E+00  0.0000E+00
 -24.410  0.0000E+00  0.0000E+00
 -24.400  0.0000E+00  0.0000E+00
 -24.390  0.0000E+00  0.0000E+00
 -24.380  0.0000E+00  0.0000E+00
 -24.370  0.0000E+00  0.0000E+00
 -24.360  0.0000E+00  0.0000E+00
 -24.350  0.0000E+00  0.0000E+00
 -24.340  0.0000E+00  0.0000E+00
 -24.330  0.0000E+00  0.0000E+00
 -24.320  0.0000E+00  0.0000E+00
 -24.310  0.0000E+00  0.0000E+00
 -24.300  0.0000E+00  0.0000E+00
 -24.290  0.0000E+00  0.0000E+00
 -24.280  0.0000E+00  0.0000E+00
 -24.270  0.0000E+00  0.0000E+00
 -24.260  0.0000E+00  0.0000E+00
 -24.250  0.0000E+00  0.0000E+00
 -24.240  0.0000E+00  0.0000E+00
 -24.230  0.0000E+00  0.0000E+00
 -24.220  0.0000E+00  0.0000E+00
 -24.210  0.0000E+00  0.0000E+00
 -24.200  0.0000E+00  0.0000E+00
 -24.190  0.0000E+00  0.0000E+00
 -24.180  0.0000E+00  0.0000E+00
 -24.170  0.0000E+00  0.0000E+00
 -24.160  0.0000E+00  0.0000E+00
 -24.150  0.0000E+00  0.0000E+00
 -24.140  0.0000E+00  0.0000E+00
 -24.130  0.0000E+00  0.0000E+00
 -24.120  0.0000E+00  0.0000E+00
 -24.110  0.0000E+00  0.0000E+00
 -24.100  0.0000E+00  0.0000E+00
 -24.090  0.0000E+00  0.0000E+00
 -24.080  0.0000E+00  0.0000E+00
 -24.070  0.0000E+00  0.0000E+00
 -24.060  0.0000E+00  0.0000E+00
 -24.050  0.0000E+00  0.0000E+00
 -24.040  0.0000E+00  0.0000E+00
 -24.030  0.0000E+00  0.0000E+00
 -24.020  0.0000E+00  0.0000E+00
 -24.010  0.0000E+00  0.0000E+00
 -24.000  0.0000E+00  0.0000E+00
 -23.990  0.0000E+00  0.0000E+00
 -23.980  0.0000E+00  0.0000E+00
 -23.970  0.0000E+00  0.0000E+00
 -23.960  0.0000E+00  0.0000E+00
 -23.950  0.0000E+00  0.0000E+00
 -23.940  0.0000E+00  0.0000E+00
 -23.930  0.0000E+00  0.0000E+00
 -23.920  0.0000E+00  0.0000E+00
 -23.910  0.0000E+00  0.0000E+00
 -23.900  0.0000E+00  0.0000E+00
 -23.890  0.0000E+00  0.0000E+00
 -23.880  0.0000E+00  0.0000E+00
 -23.870  0.0000E+00  0.0000E+00
 -23.860  0.0000E+00  0.0000E+00
 -23.850  0.0000E+00  0.0000E+00
 -23.840  0.0000E+00  0.0000E+00
 -23.830  0.0000E+00  0.0000E+00
 -23.820  0.0000E+00  0.0000E+00
 -23.810  0.0000E+00  0.0000E+00
 -23.800  0.0000E+00  0.0000E+00
 -23.790  0.0000E+00  0.0000E+00
 -23.780  0.0000E+00  0.0000E+00
 -23.770  0.0000E+00  0.0000E+00
 -23.760  0.0000E+00  0.0000E+00
 -23.750  0.0000E+00  0.0000E+00
 -23.740  0.0000E+00  0.0000E+00
 -23.730  0.0000E+00  0.0000E+00
 -23.720  0.0000E+00  0.0000E+00
 -23.710  0.0000E+00  0.0000E+00
 -23.700  0.0000E+00  0.0000E+00
 -23.690  0.0000E+00  0.0000E+00
 -23.680  0.0000E+00  0.0000E+00
 -23.670  0.0000E+00  0.0000E+00
 -23.660  0.0000E+00  0.0000E+00
 -23.650  0.0000E+00  0.0000E+00
 -23.640  0.0000E+00  0.0000E+00
 -23.630  0.0000E+00  0.0000E+00
 -23.620  0.0000E+00  0.0000E+00
 -23.610  0.0000E+00  0.0000E+00
 -23.600  0.0000E+00  0.0000E+00
 -23.590  0.0000E+00  0.0000E+00
 -23.580  0.0000E+00  0.0000E+00
 -23.570  0.0000E+00  0.0000E+00
 -23.560  0.0000E+00  0.0000E+00
 -23.550  0.0000E+00  0.0000E+00
 -23.540  0.0000E+00  0.0000E+00
 -23.530  0.0000E+00  0.0000E+00
 -23.520  0.0000E+00  0.0000E+00
 -23.510  0.0000E+00  0.0000E+00
 -23.500  0.0000E+00  0.0000E+00
 -23.490  0.0000E+00  0.0000E+00
 -23.480  0.0000E+00  0.0000E+00
 -23.470  0.0000E+00  0.0000E+00
 -23.460  0.0000E+00  0.0000E+00
 -23.450  0.0000E+00  0.0000E+00
 -23.440  0.0000E+00  0.0000E+00
 -23.430  0.0000E+00  0.0000E+00
 -23.420  0.0000E+00  0.0000E+00
 -23.410  0.0000E+00  0.0000E+00
 -23.400  0.0000E+00  0.0000E+00
 -23.390  0.0000E+00  0.0000E+00
 -23.380  0.0000E+00  0.0000E+00
 -23.370  0.0000E+00  0.0000E+00
 -23.360  0.0000E+00  0.0000E+00
 -23.350  0.0000E+00  0.0000E+00
 -23.340  0.0000E+00  0.0000E+00
 -23.330  0.0000E+00  0.0000E+00
 -23.320  0.0000E+00  0.0000E+00
 -23.310  0.0000E+00  0.0000E+00
 -23.300  0.0000E+00  0.0000E+00
 -23.290  0.0000E+00  0.0000E+00
 -23.280  0.0000E+00  0.0000E+00
 -23.270  0.0000E+00  0.0000E+00
 -23.260  0.0000E+00  0.0000E+00
 -23.250  0.0000E+00  0.0000E+00
 -23.240  0.0000E+00  0.0000E+00
 -23.230  0.0000E+00  0.0000E+00
 -23.220  0.0000E+00  0.0000E+00
 -23.210  0.0000E+00  0.0000E+00
 -23.200  0.0000E+00  0.0000E+00
 -23.190  0.0000E+00  0.0000E+00
 -23.180  0.0000E+00  0.0000E+00
 -23.170  0.0000E+00  0.0000E+00
 -23.160  0.0000E+00  0.0000E+00
 -23.150  0.0000E+00  0.0000E+00
 -23.140  0.0000E+00  0.0000E+00
 -23.130  0.0000E+00  0.0000E+00
 -23.120  0.0000E+00  0.0000E+00
 -23.110  0.0000E+00  0.0000E+00
 -23.100  0.0000E+00  0.0000E+00
 -23.090  0.0000E+00  0.0000E+00
 -23.080  0.0000E+00  0.0000E+00
 -23.070  0.0000E+00  0.0000E+00
 -23.060  0.0000E+00  0.0000E+00
 -23.050  0.0000E+00  0.0000E+00
 -23.040  0.0000E+00  0.0000E+00
 -23.030  0.0000E+00  0.0000E+00
 -23.020  0.0000E+00  0.0000E+00
 -23.010  0.0000E+00  0.0000E+00
 -23.000  0.0000E+00  0.0000E+00
 -22.990  0.0000E+00  0.0000E+00
 -22.980  0.0000E+00  0.0000E+00
 -22.970  0.0000E+00  0.0000E+00
 -22.960  0.0000E+00  0.0000E+00
 -22.950  0.0000E+00  0.0000E+00
 -22.940  0.0000E+00  0.0000E+00
 -22.930  0.0000E+00  0.0000E+00
 -22.920  0.0000E+00  0.0000E+00
 -22.910  0.0000E+00  0.0000E+00
 -22.900  0.0000E+00  0.0000E+00
 -22.890  0.0000E+00  0.0000E+00
 -22.880  0.0000E+00  0.0000E+00
 -22.870  0.0000E+00  0.0000E+00
 -22.860  0.0000E+00  0.0000E+00
 -22.850  0.0000E+00  0.0000E+00
 -22.840  0.0000E+00  0.0000E+00
 -22.830  0.0000E+00  0.0000E+00
 -22.820  0.0000E+00  0.0000E+00
 -22.810  0.0000E+00  0.0000E+00
 -22.800  0.0000E+00  0.0000E+00
 -22.790  0.0000E+00  0.0000E+00
 -22.780  0.0000E+00  0.0000E+00
 -22.770  0.0000E+00  0.0000E+00
 -22.760  0.0000E+00  0.0000E+00
 -22.750  0.0000E+00  0.0000E+00
 -22.740  0.0000E+00  0.0000E+00
 -22.730  0.0000E+00  0.0000E+00
 -22.720  0.0000E+00  0.0000E+00
 -22.710  0.0000E+00  0.0000E+00
 -22.700  0.0000E+00  0.0000E+00
 -22.690  0.0000E+00  0.0000E+00
 -22.680  0.0000E+00  0.0000E+00
 -22.670  0.0000E+00  0.0000E+00
 -22.660  0.0000E+00  0.0000E+00
 -22.650  0.0000E+00  0.0000E+00
 -22.640  0.0000E+00  0.0000E+00
 -22.630  0.0000E+00  0.0000E+00
 -22.620  0.0000E+00  0.0000E+00
 -22.610  0.0000E+00  0.0000E+00
 -22.600  0.0000E+00  0.0000E+00
 -22.590  0.0000E+00  0.0000E+00
 -22.580  0.0000E+00  0.0000E+00
 -22.570  0.0000E+00  0.0000E+00
 -22.560  0.0000E+00  0.0000E+00
 -22.550  0.0000E+00  0.0000E+00
 -22.540  0.0000E+00  0.0000E+00
 -22.530  0.0000E+00  0.0000E+00
 -22.520  0.0000E+00  0.0000E+00
 -22.510  0.0000E+00  0.0000E+00
 -22.500  0.0000E+00  0.0000E+00
 -22.490  0.0000E+00  0.0000E+00
 -22.480  0.0000E+00  0.0000E+00
 -22.470  0.0000E+00  0.0000E+00
 -22.460  0.0000E+00  0.0000E+00
 -22.450  0.0000E+00  0.0000E+00
 -22.440  0.0000E+00  0.0000E+00
 -22.430  0.0000E+00  0.0000E+00
 -22.420  0.0000E+00  0.0000E+00
 -22.410  0.0000E+00  0.0000E+00
 -22.400  0.0000E+00  0.0000E+00
 -22.390  0.0000E+00  0.0000E+00
 -22.380  0.0000E+00  0.0000E+00
 -22.370  0.0000E+00  0.0000E+00
 -22.360  0.0000E+00  0.0000E+00
 -22.350  0.0000E+00  0.0000E+00
 -22.340  0.0000E+00  0.0000E+00
 -22.330  0.0000E+00  0.0000E+00
 -22.320  0.0000E+00  0.0000E+00
 -22.310  0.0000E+00  0.0000E+00
 -22.300  0.0000E+00  0.0000E+00
 -22.290  0.0000E+00  0.0000E+00
 -22.280  0.0000E+00  0.0000E+00
 -22.270  0.0000E+00  0.0000E+00
 -22.260  0.0000E+00  0.0000E+00
 -22.250  0.0000E+00  0.0000E+00
 -22.240  0.0000E+00  0.0000E+00
 -22.230  0.0000E+00  0.0000E+00
 -22.220  0.0000E+00  0.0000E+00
 -22.210  0.0000E+00  0.0000E+00
 -22.200  0.0000E+00  0.0000E+00
 -22.190  0.0000E+00  0.0000E+00
 -22.180  0.0000E+00  0.0000E+00
 -22.170  0.0000E+00  0.0000E+00
 -22.160  0.0000E+00  0.0000E+00
 -22.150  0.0000E+00  0.0000E+00
 -22.140  0.0000E+00  0.0000E+00
 -22.130  0.0000E+00  0.0000E+00
 -22.120  0.0000E+00  0.0000E+00
 -22.110  0.0000E+00  0.0000E+00
 -22.100  0.0000E+00  0.0000E+00
 -22.090  0.0000E+00  0.0000E+00
 -22.080  0.0000E+00  0.0000E+00
 -22.070  0.0000E+00  0.0000E+00
 -22.060  0.0000E+00  0.0000E+00
 -22.050  0.0000E+00  0.0000E+00
 -22.040  0.0000E+00  0.0000E+00
 -22.030  0.0000E+00  0.0000E+00
 -22.020  0.0000E+00  0.0000E+00
 -22.010  0.0000E+00  0.0000E+00
 -22.000  0.0000E+00  0.0000E+00
 -21.990  0.0000E+00  0.0000E+00
 -21.980  0.0000E+00  0.0000E+00
 -21.970  0.0000E+00  0.0000E+00
 -21.960  0.0000E+00  0.0000E+00
 -21.950  0.0000E+00  0.0000E+00
 -21.940  0.0000E+00  0.0000E+00
 -21.930  0.0000E+00  0.0000E+00
 -21.920  0.0000E+00  0.0000E+00
 -21.910  0.0000E+00  0.0000E+00
 -21.900  0.0000E+00  0.0000E+00
 -21.890  0.0000E+00  0.0000E+00
 -21.880  0.0000E+00  0.0000E+00
 -21.870  0.0000E+00  0.0000E+00
 -21.860  0.0000E+00  0.0000E+00
 -21.850  0.0000E+00  0.0000E+00
 -21.840  0.0000E+00  0.0000E+00
 -21.830  0.0000E+00  0.0000E+00
 -21.820  0.0000E+00  0.0000E+00
 -21.810  0.0000E+00  0.0000E+00
 -21.800  0.0000E+00  0.0000E+00
 -21.790  0.0000E+00  0.0000E+00
 -21.780  0.0000E+00  0.0000E+00
 -21.770  0.0000E+00  0.0000E+00
 -21.760  0.0000E+00  0.0000E+00
 -21.750  0.0000E+00  0.0000E+00
 -21.740  0.0000E+00  0.0000E+00
 -21.730  0.0000E+00  0.0000E+00
 -21.720  0.0000E+00  0.0000E+00
 -21.710  0.0000E+00  0.0000E+00
 -21.700  0.0000E+00  0.0000E+00
 -21.690  0.0000E+00  0.0000E+00
 -21.680  0.0000E+00  0.0000E+00
 -21.670  0.0000E+00  0.0000E+00
 -21.660  0.0000E+00  0.0000E+00
 -21.650  0.0000E+00  0.0000E+00
 -21.640  0.0000E+00  0.0000E+00
 -21.630  0.0000E+00  0.0000E+00
 -21.620  0.0000E+00  0.0000E+00
 -21.610  0.0000E+00  0.0000E+00
 -21.600  0.0000E+00  0.0000E+00
 -21.590  0.0000E+00  0.0000E+00
 -21.580  0.0000E+00  0.0000E+00
 -21.570  0.0000E+00  0.0000E+00
 -21.560  0.0000E+00  0.0000E+00
 -21.550  0.0000E+00  0.0000E+00
 -21.540  0.0000E+00  0.0000E+00
 -21.530  0.0000E+00  0.0000E+00
 -21.520  0.0000E+00  0.0000E+00
 -21.510  0.0000E+00  0.0000E+00
 -21.500  0.0000E+00  0.0000E+00
 -21.490  0.0000E+00  0.0000E+00
 -21.480  0.0000E+00  0.0000E+00
 -21.470  0.0000E+00  0.0000E+00
 -21.460  0.0000E+00  0.0000E+00
 -21.450  0.0000E+00  0.0000E+00
 -21.440  0.0000E+00  0.0000E+00
 -21.430  0.0000E+00  0.0000E+00
 -21.420  0.0000E+00  0.0000E+00
 -21.410  0.0000E+00  0.0000E+00
 -21.400  0.0000E+00  0.0000E+00
 -21.390  0.0000E+00  0.0000E+00
 -21.380  0.0000E+00  0.0000E+00
 -21.370  0.0000E+00  0.0000E+00
 -21.360  0.0000E+00  0.0000E+00
 -21.350  0.0000E+00  0.0000E+00
 -21.340  0.0000E+00  0.0000E+00
 -21.330  0.0000E+00  0.0000E+00
 -21.320  0.0000E+00  0.0000E+00
 -21.310  0.0000E+00  0.0000E+00
 -21.300  0.0000E+00  0.0000E+00
 -21.290  0.0000E+00  0.0000E+00
 -21.280  0.0000E+00  0.0000E+00
 -21.270  0.0000E+00  0.0000E+00
 -21.260  0.0000E+00  0.0000E+00
 -21.250  0.0000E+00  0.0000E+00
 -21.240  0.0000E+00  0.0000E+00
 -21.230  0.0000E+00  0.0000E+00
 -21.220  0.0000E+00  0.0000E+00
 -21.210  0.0000E+00  0.0000E+00
 -21.200  0.0000E+00  0.0000E+00
 -21.190  0.0000E+00  0.0000E+00
 -21.180  0.0000E+00  0.0000E+00
 -21.170  0.0000E+00  0.0000E+00
 -21.160  0.0000E+00  0.0000E+00
 -21.150  0.0000E+00  0.0000E+00
 -21.140  0.0000E+00  0.0000E+00
 -21.130  0.0000E+00  0.0000E+00
 -21.120  0.0000E+00  0.0000E+00
 -21.110  0.0000E+00  0.0000E+00
 -21.100  0.0000E+00  0.0000E+00
 -21.090  0.0000E+00  0.0000E+00
 -21.080  0.0000E+00  0.0000E+00
 -21.070  0.0000E+00  0.0000E+00
 -21.060  0.0000E+00  0.0000E+00
 -21.050  0.0000E+00  0.0000E+00
 -21.040  0.0000E+00  0.0000E+00
 -21.030  0.0000E+00  0.0000E+00
 -21.020  0.0000E+00  0.0000E+00
 -21.010  0.0000E+00  0.0000E+00
 -21.000  0.0000E+00  0.0000E+00
 -20.990  0.0000E+00  0.0000E+00
 -20.980  0.0000E+00  0.0000E+00
 -20.970  0.0000E+00  0.0000E+00
 -20.960  0.0000E+00  0.0000E+00
 -20.950  0.0000E+00  0.0000E+00
 -20.940  0.0000E+00  0.0000E+00
 -20.930  0.0000E+00  0.0000E+00
 -20.920  0.0000E+00  0.0000E+00
 -20.910  0.0000E+00  0.0000E+00
 -20.900  0.0000E+00  0.0000E+00
 -20.890  0.0000E+00  0.0000E+00
 -20.880  0.0000E+00  0.0000E+00
 -20.870  0.0000E+00  0.0000E+00
 -20.860  0.0000E+00  0.0000E+00
 -20.850  0.0000E+00  0.0000E+00
 -20.840  0.0000E+00  0.0000E+00
 -20.830  0.0000E+00  0.0000E+00
 -20.820  0.0000E+00  0.0000E+00
 -20.810  0.0000E+00  0.0000E+00
 -20.800  0.0000E+00  0.0000E+00
 -20.790  0.0000E+00  0.0000E+00
 -20.780  0.0000E+00  0.0000E+00
 -20.770  0.0000E+00  0.0000E+00
 -20.760  0.0000E+00  0.0000E+00
 -20.750  0.0000E+00  0.0000E+00
 -20.740  0.0000E+00  0.0000E+00
 -20.730  0.0000E+00  0.0000E+00
 -20.720  0.0000E+00  0.0000E+00
 -20.710  0.0000E+00  0.0000E+00
 -20.700  0.0000E+00  0.0000E+00
 -20.690  0.0000E+00  0.0000E+00
 -20.680  0.0000E+00  0.0000E+00
 -20.670  0.0000E+00  0.0000E+00
 -20.660  0.0000E+00  0.0000E+00
 -20.650  0.0000E+00  0.0000E+00
 -20.640  0.0000E+00  0.0000E+00
 -20.630  0.0000E+00  0.0000E+00
 -20.620  0.0000E+00  0.0000E+00
 -20.610  0.0000E+00  0.0000E+00
 -20.600  0.0000E+00  0.0000E+00
 -20.590  0.0000E+00  0.0000E+00
 -20.580  0.0000E+00  0.0000E+00
 -20.570  0.0000E+00  0.0000E+00
 -20.560  0.0000E+00  0.0000E+00
 -20.550  0.0000E+00  0.0000E+00
 -20.540  0.0000E+00  0.0000E+00
 -20.530  0.0000E+00  0.0000E+00
 -20.520  0.0000E+00  0.0000E+00
 -20.510  0.0000E+00  0.0000E+00
 -20.500  0.0000E+00  0.0000E+00
 -20.490  0.0000E+00  0.0000E+00
 -20.480  0.0000E+00  0.0000E+00
 -20.470  0.0000E+00  0.0000E+00
 -20.460  0.0000E+00  0.0000E+00
 -20.450  0.0000E+00  0.0000E+00
 -20.440  0.0000E+00  0.0000E+00
 -20.430  0.0000E+00  0.0000E+00
 -20.420  0.0000E+00  0.0000E+00
 -20.410  0.0000E+00  0.0000E+00
 -20.400  0.0000E+00  0.0000E+00
 -20.390  0.0000E+00  0.0000E+00
 -20.380  0.0000E+00  0.0000E+00
 -20.370  0.0000E+00  0.0000E+00
 -20.360  0.0000E+00  0.0000E+00
 -20.350  0.0000E+00  0.0000E+00
 -20.340  0.0000E+00  0.0000E+00
 -20.330  0.0000E+00  0.0000E+00
 -20.320  0.0000E+00  0.0000E+00
 -20.310  0.0000E+00  0.0000E+00
 -20.300  0.0000E+00  0.0000E+00
 -20.290  0.0000E+00  0.0000E+00
 -20.280  0.0000E+00  0.0000E+00
 -20.270  0.0000E+00  0.0000E+00
 -20.260  0.0000E+00  0.0000E+00
 -20.250  0.0000E+00  0.0000E+00
 -20.240  0.0000E+00  0.0000E+00
 -20.230  0.0000E+00  0.0000E+00
 -20.220  0.0000E+00  0.0000E+00
 -20.210  0.0000E+00  0.0000E+00
 -20.200  0.0000E+00  0.0000E+00
 -20.190  0.0000E+00  0.0000E+00
 -20.180  0.0000E+00  0.0000E+00
 -20.170  0.0000E+00  0.0000E+00
 -20.160  0.0000E+00  0.0000E+00
 -20.150  0.0000E+00  0.0000E+00
 -20.140  0.0000E+00  0.0000E+00
 -20.130  0.0000E+00  0.0000E+00
 -20.120  0.0000E+00  0.0000E+00
 -20.110  0.0000E+00  0.0000E+00
 -20.100  0.0000E+00  0.0000E+00
 -20.090  0.0000E+00  0.0000E+00
 -20.080  0.0000E+00  0.0000E+00
 -20.070  0.0000E+00  0.0000E+00
 -20.060  0.0000E+00  0.0000E+00
 -20.050  0.0000E+00  0.0000E+00
 -20.040  0.0000E+00  0.0000E+00
 -20.030  0.0000E+00  0.0000E+00
 -20.020  0.0000E+00  0.0000E+00
 -20.010  0.0000E+00  0.0000E+00
 -20.000  0.0000E+00  0.0000E+00
 -19.990  0.0000E+00  0.0000E+00
 -19.980  0.0000E+00  0.0000E+00
 -19.970  0.0000E+00  0.0000E+00
 -19.960  0.0000E+00  0.0000E+00
 -19.950  0.0000E+00  0.0000E+00
 -19.940  0.0000E+00  0.0000E+00
 -19.930  0.0000E+00  0.0000E+00
 -19.920  0.0000E+00  0.0000E+00
 -19.910  0.0000E+00  0.0000E+00
 -19.900  0.0000E+00  0.0000E+00
 -19.890  0.0000E+00  0.0000E+00
 -19.880  0.0000E+00  0.0000E+00
 -19.870  0.0000E+00  0.0000E+00
 -19.860  0.0000E+00  0.0000E+00
 -19.850  0.0000E+00  0.0000E+00
 -19.840  0.0000E+00  0.0000E+00
 -19.830  0.0000E+00  0.0000E+00
 -19.820  0.0000E+00  0.0000E+00
 -19.810  0.0000E+00  0.0000E+00
 -19.800  0.0000E+00  0.0000E+00
 -19.790  0.0000E+00  0.0000E+00
 -19.780  0.0000E+00  0.0000E+00
 -19.770  0.0000E+00  0.0000E+00
 -19.760  0.0000E+00  0.0000E+00
 -19.750  0.0000E+00  0.0000E+00
 -19.740  0.0000E+00  0.0000E+00
 -19.730  0.0000E+00  0.0000E+00
 -19.720  0.0000E+00  0.0000E+00
 -19.710  0.0000E+00  0.0000E+00
 -19.700  0.0000E+00  0.0000E+00
 -19.690  0.0000E+00  0.0000E+00
 -19.680  0.0000E+00  0.0000E+00
 -19.670  0.0000E+00  0.0000E+00
 -19.660  0.0000E+00  0.0000E+00
 -19.650  0.0000E+00  0.0000E+00
 -19.640  0.0000E+00  0.0000E+00
 -19.630  0.0000E+00  0.0000E+00
 -19.620  0.0000E+00  0.0000E+00
 -19.610  0.0000E+00  0.0000E+00
 -19.600  0.0000E+00  0.0000E+00
 -19.590  0.0000E+00  0.0000E+00
 -19.580  0.0000E+00  0.0000E+00
 -19.570  0.0000E+00  0.0000E+00
 -19.560  0.0000E+00  0.0000E+00
 -19.550  0.0000E+00  0.0000E+00
 -19.540  0.0000E+00  0.0000E+00
 -19.530  0.0000E+00  0.0000E+00
 -19.520  0.0000E+00  0.0000E+00
 -19.510  0.0000E+00  0.0000E+00
 -19.500  0.0000E+00  0.0000E+00
 -19.490  0.0000E+00  0.0000E+00
 -19.480  0.0000E+00  0.0000E+00
 -19.470  0.0000E+00  0.0000E+00
 -19.460  0.0000E+00  0.0000E+00
 -19.450  0.0000E+00  0.0000E+00
 -19.440  0.0000E+00  0.0000E+00
 -19.430  0.0000E+00  0.0000E+00
 -19.420  0.0000E+00  0.0000E+00
 -19.410  0.0000E+00  0.0000E+00
 -19.400  0.0000E+00  0.0000E+00
 -19.390  0.0000E+00  0.0000E+00
 -19.380  0.0000E+00  0.0000E+00
 -19.370  0.0000E+00  0.0000E+00
 -19.360  0.0000E+00  0.0000E+00
 -19.350  0.0000E+00  0.0000E+00
 -19.340  0.0000E+00  0.0000E+00
 -19.330  0.0000E+00  0.0000E+00
 -19.320  0.0000E+00  0.0000E+00
 -19.310  0.0000E+00  0.0000E+00
 -19.300  0.0000E+00  0.0000E+00
 -19.290  0.0000E+00  0.0000E+00
 -19.280  0.0000E+00  0.0000E+00
 -19.270  0.0000E+00  0.0000E+00
 -19.260  0.0000E+00  0.0000E+00
 -19.250  0.0000E+00  0.0000E+00
 -19.240  0.0000E+00  0.0000E+00
 -19.230  0.0000E+00  0.0000E+00
 -19.220  0.0000E+00  0.0000E+00
 -19.210  0.0000E+00  0.0000E+00
 -19.200  0.0000E+00  0.0000E+00
 -19.190  0.0000E+00  0.0000E+00
 -19.180  0.0000E+00  0.0000E+00
 -19.170  0.0000E+00  0.0000E+00
 -19.160  0.0000E+00  0.0000E+00
 -19.150  0.0000E+00  0.0000E+00
 -19.140  0.0000E+00  0.0000E+00
 -19.130  0.0000E+00  0.0000E+00
 -19.120  0.0000E+00  0.0000E+00
 -19.110  0.0000E+00  0.0000E+00
 -19.100  0.0000E+00  0.0000E+00
 -19.090  0.0000E+00  0.0000E+00
 -19.080  0.0000E+00  0.0000E+00
 -19.070  0.0000E+00  0.0000E+00
 -19.060  0.0000E+00  0.0000E+00
 -19.050  0.0000E+00  0.0000E+00
 -19.040  0.0000E+00  0.0000E+00
 -19.030  0.0000E+00  0.0000E+00
 -19.020  0.0000E+00  0.0000E+00
 -19.010  0.0000E+00  0.0000E+00
 -19.000  0.0000E+00  0.0000E+00
 -18.990  0.0000E+00  0.0000E+00
 -18.980  0.0000E+00  0.0000E+00
 -18.970  0.0000E+00  0.0000E+00
 -18.960  0.0000E+00  0.0000E+00
 -18.950  0.0000E+00  0.0000E+00
 -18.940  0.0000E+00  0.0000E+00
 -18.930  0.0000E+00  0.0000E+00
 -18.920  0.0000E+00  0.0000E+00
 -18.910  0.0000E+00  0.0000E+00
 -18.900  0.0000E+00  0.0000E+00
 -18.890  0.0000E+00  0.0000E+00
 -18.880  0.0000E+00  0.0000E+00
 -18.870  0.0000E+00  0.0000E+00
 -18.860  0.0000E+00  0.0000E+00
 -18.850  0.0000E+00  0.0000E+00
 -18.840  0.0000E+00  0.0000E+00
 -18.830  0.0000E+00  0.0000E+00
 -18.820  0.0000E+00  0.0000E+00
 -18.810  0.0000E+00  0.0000E+00
 -18.800  0.0000E+00  0.0000E+00
 -18.790  0.0000E+00  0.0000E+00
 -18.780  0.0000E+00  0.0000E+00
 -18.770  0.0000E+00  0.0000E+00
 -18.760  0.0000E+00  0.0000E+00
 -18.750  0.0000E+00  0.0000E+00
 -18.740  0.0000E+00  0.0000E+00
 -18.730  0.0000E+00  0.0000E+00
 -18.720  0.0000E+00  0.0000E+00
 -18.710  0.0000E+00  0.0000E+00
 -18.700  0.0000E+00  0.0000E+00
 -18.690  0.0000E+00  0.0000E+00
 -18.680  0.0000E+00  0.0000E+00
 -18.670  0.0000E+00  0.0000E+00
 -18.660  0.0000E+00  0.0000E+00
 -18.650  0.0000E+00  0.0000E+00
 -18.640  0.0000E+00  0.0000E+00
 -18.630  0.0000E+00  0.0000E+00
 -18.620  0.0000E+00  0.0000E+00
 -18.610  0.0000E+00  0.0000E+00
 -18.600  0.0000E+00  0.0000E+00
 -18.590  0.0000E+00  0.0000E+00
 -18.580  0.0000E+00  0.0000E+00
 -18.570  0.0000E+00  0.0000E+00
 -18.560  0.0000E+00  0.0000E+00
 -18.550  0.0000E+00  0.0000E+00
 -18.540  0.0000E+00  0.0000E+00
 -18.530  0.0000E+00  0.0000E+00
 -18.520  0.0000E+00  0.0000E+00
 -18.510  0.0000E+00  0.0000E+00
 -18.500  0.0000E+00  0.0000E+00
 -18.490  0.0000E+00  0.0000E+00
 -18.480  0.0000E+00  0.0000E+00
 -18.470  0.0000E+00  0.0000E+00
 -18.460  0.0000E+00  0.0000E+00
 -18.450  0.0000E+00  0.0000E+00
 -18.440  0.0000E+00  0.0000E+00
 -18.430  0.0000E+00  0.0000E+00
 -18.420  0.0000E+00  0.0000E+00
 -18.410  0.0000E+00  0.0000E+00
 -18.400  0.0000E+00  0.0000E+00
 -18.390  0.0000E+00  0.0000E+00
 -18.380  0.0000E+00  0.0000E+00
 -18.370  0.0000E+00  0.0000E+00
 -18.360  0.0000E+00  0.0000E+00
 -18.350  0.0000E+00  0.0000E+00
 -18.340  0.0000E+00  0.0000E+00
 -18.330  0.0000E+00  0.0000E+00
 -18.320  0.0000E+00  0.0000E+00
 -18.310  0.0000E+00  0.0000E+00
 -18.300  0.0000E+00  0.0000E+00
 -18.290  0.0000E+00  0.0000E+00
 -18.280  0.0000E+00  0.0000E+00
 -18.270  0.0000E+00  0.0000E+00
 -18.260  0.0000E+00  0.0000E+00
 -18.250  0.0000E+00  0.0000E+00
 -18.240  0.0000E+00  0.0000E+00
 -18.230  0.0000E+00  0.0000E+00
 -18.220  0.0000E+00  0.0000E+00
 -18.210  0.0000E+00  0.0000E+00
 -18.200  0.0000E+00  0.0000E+00
 -18.190  0.0000E+00  0.0000E+00
 -18.180  0.0000E+00  0.0000E+00
 -18.170  0.0000E+00  0.0000E+00
 -18.160  0.0000E+00  0.0000E+00
 -18.150  0.0000E+00  0.0000E+00
 -18.140  0.0000E+00  0.0000E+00
 -18.130  0.0000E+00  0.0000E+00
 -18.120  0.0000E+00  0.0000E+00
 -18.110  0.0000E+00  0.0000E+00
 -18.100  0.0000E+00  0.0000E+00
 -18.090  0.0000E+00  0.0000E+00
 -18.080  0.0000E+00  0.0000E+00
 -18.070  0.0000E+00  0.0000E+00
 -18.060  0.0000E+00  0.0000E+00
 -18.050  0.0000E+00  0.0000E+00
 -18.040  0.0000E+00  0.0000E+00
 -18.030  0.0000E+00  0.0000E+00
 -18.020  0.0000E+00  0.0000E+00
 -18.010  0.0000E+00  0.0000E+00
 -18.000  0.0000E+00  0.0000E+00
 -17.990  0.0000E+00  0.0000E+00
 -17.980  0.0000E+00  0.0000E+00
 -17.970  0.0000E+00  0.0000E+00
 -17.960  0.0000E+00  0.0000E+00
 -17.950  0.0000E+00  0.0000E+00
 -17.940  0.0000E+00  0.0000E+00
 -17.930  0.0000E+00  0.0000E+00
 -17.920  0.0000E+00  0.0000E+00
 -17.910  0.0000E+00  0.0000E+00
 -17.900  0.0000E+00  0.0000E+00
 -17.890  0.0000E+00  0.0000E+00
 -17.880  0.0000E+00  0.0000E+00
 -17.870  0.0000E+00  0.0000E+00
 -17.860  0.0000E+00  0.0000E+00
 -17.850  0.0000E+00  0.0000E+00
 -17.840  0.0000E+00  0.0000E+00
 -17.830  0.0000E+00  0.0000E+00
 -17.820  0.0000E+00  0.0000E+00
 -17.810  0.0000E+00  0.0000E+00
 -17.800  0.0000E+00  0.0000E+00
 -17.790  0.0000E+00  0.0000E+00
 -17.780  0.0000E+00  0.0000E+00
 -17.770  0.0000E+00  0.0000E+00
 -17.760  0.0000E+00  0.0000E+00
 -17.750  0.0000E+00  0.0000E+00
 -17.740  0.0000E+00  0.0000E+00
 -17.730  0.0000E+00  0.0000E+00
 -17.720  0.0000E+00  0.0000E+00
 -17.710  0.0000E+00  0.0000E+00
 -17.700  0.0000E+00  0.0000E+00
 -17.690  0.0000E+00  0.0000E+00
 -17.680  0.0000E+00  0.0000E+00
 -17.670  0.0000E+00  0.0000E+00
 -17.660  0.0000E+00  0.0000E+00
 -17.650  0.0000E+00  0.0000E+00
 -17.640  0.0000E+00  0.0000E+00
 -17.630  0.0000E+00  0.0000E+00
 -17.620  0.0000E+00  0.0000E+00
 -17.610  0.0000E+00  0.0000E+00
 -17.600  0.0000E+00  0.0000E+00
 -17.590  0.0000E+00  0.0000E+00
 -17.580  0.0000E+00  0.0000E+00
 -17.570  0.0000E+00  0.0000E+00
 -17.560  0.0000E+00  0.0000E+00
 -17.550  0.0000E+00  0.0000E+00
 -17.540  0.0000E+00  0.0000E+00
 -17.530  0.0000E+00  0.0000E+00
 -17.520  0.0000E+00  0.0000E+00
 -17.510  0.0000E+00  0.0000E+00
 -17.500  0.0000E+00  0.0000E+00
 -17.490  0.0000E+00  0.0000E+00
 -17.480  0.0000E+00  0.0000E+00
 -17.470  0.0000E+00  0.0000E+00
 -17.460  0.0000E+00  0.0000E+00
 -17.450  0.0000E+00  0.0000E+00
 -17.440  0.0000E+00  0.0000E+00
 -17.430  0.0000E+00  0.0000E+00
 -17.420  0.0000E+00  0.0000E+00
 -17.410  0.0000E+00  0.0000E+00
 -17.400  0.0000E+00  0.0000E+00
 -17.390  0.0000E+00  0.0000E+00
 -17.380  0.0000E+00  0.0000E+00
 -17.370  0.0000E+00  0.0000E+00
 -17.360  0.0000E+00  0.0000E+00
 -17.350  0.0000E+00  0.0000E+00
 -17.340  0.0000E+00  0.0000E+00
 -17.330  0.0000E+00  0.0000E+00
 -17.320  0.0000E+00  0.0000E+00
 -17.310  0.0000E+00  0.0000E+00
 -17.300  0.0000E+00  0.0000E+00
 -17.290  0.0000E+00  0.0000E+00
 -17.280  0.0000E+00  0.0000E+00
 -17.270  0.0000E+00  0.0000E+00
 -17.260  0.0000E+00  0.0000E+00
 -17.250  0.0000E+00  0.0000E+00
 -17.240  0.0000E+00  0.0000E+00
 -17.230  0.0000E+00  0.0000E+00
 -17.220  0.0000E+00  0.0000E+00
 -17.210  0.0000E+00  0.0000E+00
 -17.200  0.0000E+00  0.0000E+00
 -17.190  0.0000E+00  0.0000E+00
 -17.180  0.0000E+00  0.0000E+00
 -17.170  0.0000E+00  0.0000E+00
 -17.160  0.0000E+00  0.0000E+00
 -17.150  0.0000E+00  0.0000E+00
 -17.140  0.0000E+00  0.0000E+00
 -17.130  0.0000E+00  0.0000E+00
 -17.120  0.0000E+00  0.0000E+00
 -17.110  0.0000E+00  0.0000E+00
 -17.100  0.0000E+00  0.0000E+00
 -17.090  0.0000E+00  0.0000E+00
 -17.080  0.0000E+00  0.0000E+00
 -17.070  0.0000E+00  0.0000E+00
 -17.060  0.0000E+00  0.0000E+00
 -17.050  0.0000E+00  0.0000E+00
 -17.040  0.0000E+00  0.0000E+00
 -17.030  0.0000E+00  0.0000E+00
 -17.020  0.0000E+00  0.0000E+00
 -17.010  0.0000E+00  0.0000E+00
 -17.000  0.0000E+00  0.0000E+00
 -16.990  0.0000E+00  0.0000E+00
 -16.980  0.0000E+00  0.0000E+00
 -16.970  0.0000E+00  0.0000E+00
 -16.960  0.0000E+00  0.0000E+00
 -16.950  0.0000E+00  0.0000E+00
 -16.940  0.0000E+00  0.0000E+00
 -16.930  0.0000E+00  0.0000E+00
 -16.920  0.0000E+00  0.0000E+00
 -16.910  0.0000E+00  0.0000E+00
 -16.900  0.0000E+00  0.0000E+00
 -16.890  0.0000E+00  0.0000E+00
 -16.880  0.0000E+00  0.0000E+00
 -16.870  0.0000E+00  0.0000E+00
 -16.860  0.0000E+00  0.0000E+00
 -16.850  0.0000E+00  0.0000E+00
 -16.840  0.0000E+00  0.0000E+00
 -16.830  0.0000E+00  0.0000E+00
 -16.820  0.0000E+00  0.0000E+00
 -16.810  0.0000E+00  0.0000E+00
 -16.800  0.0000E+00  0.0000E+00
 -16.790  0.0000E+00  0.0000E+00
 -16.780  0.0000E+00  0.0000E+00
 -16.770  0.0000E+00  0.0000E+00
 -16.760  0.0000E+00  0.0000E+00
 -16.750  0.0000E+00  0.0000E+00
 -16.740  0.0000E+00  0.0000E+00
 -16.730  0.0000E+00  0.0000E+00
 -16.720  0.0000E+00  0.0000E+00
 -16.710  0.0000E+00  0.0000E+00
 -16.700  0.0000E+00  0.0000E+00
 -16.690  0.0000E+00  0.0000E+00
 -16.680  0.0000E+00  0.0000E+00
 -16.670  0.0000E+00  0.0000E+00
 -16.660  0.0000E+00  0.0000E+00
 -16.650  0.0000E+00  0.0000E+00
 -16.640  0.0000E+00  0.0000E+00
 -16.630  0.0000E+00  0.0000E+00
 -16.620  0.0000E+00  0.0000E+00
 -16.610  0.0000E+00  0.0000E+00
 -16.600  0.0000E+00  0.0000E+00
 -16.590  0.0000E+00  0.0000E+00
 -16.580  0.0000E+00  0.0000E+00
 -16.570  0.0000E+00  0.0000E+00
 -16.560  0.0000E+00  0.0000E+00
 -16.550  0.0000E+00  0.0000E+00
 -16.540  0.0000E+00  0.0000E+00
 -16.530  0.0000E+00  0.0000E+00
 -16.520  0.0000E+00  0.0000E+00
 -16.510  0.0000E+00  0.0000E+00
 -16.500  0.0000E+00  0.0000E+00
 -16.490  0.0000E+00  0.0000E+00
 -16.480  0.0000E+00  0.0000E+00
 -16.470  0.0000E+00  0.0000E+00
 -16.460  0.0000E+00  0.0000E+00
 -16.450  0.0000E+00  0.0000E+00
 -16.440  0.0000E+00  0.0000E+00
 -16.430  0.0000E+00  0.0000E+00
 -16.420  0.0000E+00  0.0000E+00
 -16.410  0.0000E+00  0.0000E+00
 -16.400  0.0000E+00  0.0000E+00
 -16.390  0.0000E+00  0.0000E+00
 -16.380  0.0000E+00  0.0000E+00
 -16.370  0.0000E+00  0.0000E+00
 -16.360  0.0000E+00  0.0000E+00
 -16.350  0.0000E+00  0.0000E+00
 -16.340  0.0000E+00  0.0000E+00
 -16.330  0.0000E+00  0.0000E+00
 -16.320  0.0000E+00  0.0000E+00
 -16.310  0.0000E+00  0.0000E+00
 -16.300  0.0000E+00  0.0000E+00
 -16.290  0.0000E+00  0.0000E+00
 -16.280  0.0000E+00  0.0000E+00
 -16.270  0.0000E+00  0.0000E+00
 -16.260  0.0000E+00  0.0000E+00
 -16.250  0.0000E+00  0.0000E+00
 -16.240  0.0000E+00  0.0000E+00
 -16.230  0.0000E+00  0.0000E+00
 -16.220  0.0000E+00  0.0000E+00
 -16.210  0.0000E+00  0.0000E+00
 -16.200  0.0000E+00  0.0000E+00
 -16.190  0.0000E+00  0.0000E+00
 -16.180  0.0000E+00  0.0000E+00
 -16.170  0.0000E+00  0.0000E+00
 -16.160  0.0000E+00  0.0000E+00
 -16.150  0.0000E+00  0.0000E+00
 -16.140  0.0000E+00  0.0000E+00
 -16.130  0.0000E+00  0.0000E+00
 -16.120  0.0000E+00  0.0000E+00
 -16.110  0.0000E+00  0.0000E+00
 -16.100  0.0000E+00  0.0000E+00
 -16.090  0.0000E+00  0.0000E+00
 -16.080  0.0000E+00  0.0000E+00
 -16.070  0.0000E+00  0.0000E+00
 -16.060  0.0000E+00  0.0000E+00
 -16.050  0.0000E+00  0.0000E+00
 -16.040  0.0000E+00  0.0000E+00
 -16.030  0.0000E+00  0.0000E+00
 -16.020  0.0000E+00  0.0000E+00
 -16.010  0.0000E+00  0.0000E+00
 -16.000  0.0000E+00  0.0000E+00
 -15.990  0.0000E+00  0.0000E+00
 -15.980  0.0000E+00  0.0000E+00
 -15.970  0.0000E+00  0.0000E+00
 -15.960  0.0000E+00  0.0000E+00
 -15.950  0.0000E+00  0.0000E+00
 -15.940  0.0000E+00  0.0000E+00
 -15.930  0.0000E+00  0.0000E+00
 -15.920  0.0000E+00  0.0000E+00
 -15.910  0.0000E+00  0.0000E+00
 -15.900  0.0000E+00  0.0000E+00
 -15.890  0.0000E+00  0.0000E+00
 -15.880  0.0000E+00  0.0000E+00
 -15.870  0.0000E+00  0.0000E+00
 -15.860  0.0000E+00  0.0000E+00
 -15.850  0.0000E+00  0.0000E+00
 -15.840  0.0000E+00  0.0000E+00
 -15.830  0.0000E+00  0.0000E+00
 -15.820  0.0000E+00  0.0000E+00
 -15.810  0.0000E+00  0.0000E+00
 -15.800  0.0000E+00  0.0000E+00
 -15.790  0.0000E+00  0.0000E+00
 -15.780  0.0000E+00  0.0000E+00
 -15.770  0.0000E+00  0.0000E+00
 -15.760  0.0000E+00  0.0000E+00
 -15.750  0.0000E+00  0.0000E+00
 -15.740  0.0000E+00  0.0000E+00
 -15.730  0.0000E+00  0.0000E+00
 -15.720  0.0000E+00  0.0000E+00
 -15.710  0.0000E+00  0.0000E+00
 -15.700  0.0000E+00  0.0000E+00
 -15.690  0.0000E+00  0.0000E+00
 -15.680  0.0000E+00  0.0000E+00
 -15.670  0.0000E+00  0.0000E+00
 -15.660  0.0000E+00  0.0000E+00
 -15.650  0.0000E+00  0.0000E+00
 -15.640  0.0000E+00  0.0000E+00
 -15.630  0.0000E+00  0.0000E+00
 -15.620  0.0000E+00  0.0000E+00
 -15.610  0.0000E+00  0.0000E+00
 -15.600  0.0000E+00  0.0000E+00
 -15.590  0.0000E+00  0.0000E+00
 -15.580  0.0000E+00  0.0000E+00
 -15.570  0.0000E+00  0.0000E+00
 -15.560  0.0000E+00  0.0000E+00
 -15.550  0.0000E+00  0.0000E+00
 -15.540  0.0000E+00  0.0000E+00
 -15.530  0.0000E+00  0.0000E+00
 -15.520  0.0000E+00  0.0000E+00
 -15.510  0.0000E+00  0.0000E+00
 -15.500  0.0000E+00  0.0000E+00
 -15.490  0.0000E+00  0.0000E+00
 -15.480  0.0000E+00  0.0000E+00
 -15.470  0.0000E+00  0.0000E+00
 -15.460  0.0000E+00  0.0000E+00
 -15.450  0.0000E+00  0.0000E+00
 -15.440  0.0000E+00  0.0000E+00
 -15.430  0.0000E+00  0.0000E+00
 -15.420  0.0000E+00  0.0000E+00
 -15.410  0.0000E+00  0.0000E+00
 -15.400  0.0000E+00  0.0000E+00
 -15.390  0.0000E+00  0.0000E+00
 -15.380  0.0000E+00  0.0000E+00
 -15.370  0.0000E+00  0.0000E+00
 -15.360  0.0000E+00  0.0000E+00
 -15.350  0.0000E+00  0.0000E+00
 -15.340  0.0000E+00  0.0000E+00
 -15.330  0.0000E+00  0.0000E+00
 -15.320  0.0000E+00  0.0000E+00
 -15.310  0.0000E+00  0.0000E+00
 -15.300  0.0000E+00  0.0000E+00
 -15.290  0.0000E+00  0.0000E+00
 -15.280  0.0000E+00  0.0000E+00
 -15.270  0.0000E+00  0.0000E+00
 -15.260  0.0000E+00  0.0000E+00
 -15.250  0.0000E+00  0.0000E+00
 -15.240  0.0000E+00  0.0000E+00
 -15.230  0.0000E+00  0.0000E+00
 -15.220  0.0000E+00  0.0000E+00
 -15.210  0.0000E+00  0.0000E+00
 -15.200  0.0000E+00  0.0000E+00
 -15.190  0.0000E+00  0.0000E+00
 -15.180  0.0000E+00  0.0000E+00
 -15.170  0.0000E+00  0.0000E+00
 -15.160  0.0000E+00  0.0000E+00
 -15.150  0.0000E+00  0.0000E+00
 -15.140  0.0000E+00  0.0000E+00
 -15.130  0.0000E+00  0.0000E+00
 -15.120  0.0000E+00  0.0000E+00
 -15.110  0.0000E+00  0.0000E+00
 -15.100  0.0000E+00  0.0000E+00
 -15.090  0.0000E+00  0.0000E+00
 -15.080  0.0000E+00  0.0000E+00
 -15.070  0.0000E+00  0.0000E+00
 -15.060  0.0000E+00  0.0000E+00
 -15.050  0.0000E+00  0.0000E+00
 -15.040  0.0000E+00  0.0000E+00
 -15.030  0.0000E+00  0.0000E+00
 -15.020  0.0000E+00  0.0000E+00
 -15.010  0.0000E+00  0.0000E+00
 -15.000  0.0000E+00  0.0000E+00
 -14.990  0.0000E+00  0.0000E+00
 -14.980  0.0000E+00  0.0000E+00
 -14.970  0.0000E+00  0.0000E+00
 -14.960  0.0000E+00  0.0000E+00
 -14.950  0.0000E+00  0.0000E+00
 -14.940  0.0000E+00  0.0000E+00
 -14.930  0.0000E+00  0.0000E+00
 -14.920  0.0000E+00  0.0000E+00
 -14.910  0.0000E+00  0.0000E+00
 -14.900  0.0000E+00  0.0000E+00
 -14.890  0.0000E+00  0.0000E+00
 -14.880  0.0000E+00  0.0000E+00
 -14.870  0.0000E+00  0.0000E+00
 -14.860  0.0000E+00  0.0000E+00
 -14.850  0.0000E+00  0.0000E+00
 -14.840  0.0000E+00  0.0000E+00
 -14.830  0.0000E+00  0.0000E+00
 -14.820  0.0000E+00  0.0000E+00
 -14.810  0.0000E+00  0.0000E+00
 -14.800  0.0000E+00  0.0000E+00
 -14.790  0.0000E+00  0.0000E+00
 -14.780  0.0000E+00  0.0000E+00
 -14.770  0.0000E+00  0.0000E+00
 -14.760  0.0000E+00  0.0000E+00
 -14.750  0.0000E+00  0.0000E+00
 -14.740  0.0000E+00  0.0000E+00
 -14.730  0.0000E+00  0.0000E+00
 -14.720  0.0000E+00  0.0000E+00
 -14.710  0.0000E+00  0.0000E+00
 -14.700  0.0000E+00  0.0000E+00
 -14.690  0.0000E+00  0.0000E+00
 -14.680  0.0000E+00  0.0000E+00
 -14.670  0.0000E+00  0.0000E+00
 -14.660  0.0000E+00  0.0000E+00
 -14.650  0.0000E+00  0.0000E+00
 -14.640  0.0000E+00  0.0000E+00
 -14.630  0.0000E+00  0.0000E+00
 -14.620  0.0000E+00  0.0000E+00
 -14.610  0.0000E+00  0.0000E+00
 -14.600  0.0000E+00  0.0000E+00
 -14.590  0.0000E+00  0.0000E+00
 -14.580  0.0000E+00  0.0000E+00
 -14.570  0.0000E+00  0.0000E+00
 -14.560  0.0000E+00  0.0000E+00
 -14.550  0.0000E+00  0.0000E+00
 -14.540  0.0000E+00  0.0000E+00
 -14.530  0.0000E+00  0.0000E+00
 -14.520  0.0000E+00  0.0000E+00
 -14.510  0.0000E+00  0.0000E+00
 -14.500  0.0000E+00  0.0000E+00
 -14.490  0.0000E+00  0.0000E+00
 -14.480  0.0000E+00  0.0000E+00
 -14.470  0.0000E+00  0.0000E+00
 -14.460  0.0000E+00  0.0000E+00
 -14.450  0.0000E+00  0.0000E+00
 -14.440  0.0000E+00  0.0000E+00
 -14.430  0.0000E+00  0.0000E+00
 -14.420  0.0000E+00  0.0000E+00
 -14.410  0.0000E+00  0.0000E+00
 -14.400  0.0000E+00  0.0000E+00
 -14.390  0.0000E+00  0.0000E+00
 -14.380  0.0000E+00  0.0000E+00
 -14.370  0.0000E+00  0.0000E+00
 -14.360  0.0000E+00  0.0000E+00
 -14.350  0.0000E+00  0.0000E+00
 -14.340  0.0000E+00  0.0000E+00
 -14.330  0.0000E+00  0.0000E+00
 -14.320  0.0000E+00  0.0000E+00
 -14.310  0.0000E+00  0.0000E+00
 -14.300  0.0000E+00  0.0000E+00
 -14.290  0.0000E+00  0.0000E+00
 -14.280  0.0000E+00  0.0000E+00
 -14.270  0.0000E+00  0.0000E+00
 -14.260  0.0000E+00  0.0000E+00
 -14.250  0.0000E+00  0.0000E+00
 -14.240  0.0000E+00  0.0000E+00
 -14.230  0.0000E+00  0.0000E+00
 -14.220  0.0000E+00  0.0000E+00
 -14.210  0.0000E+00  0.0000E+00
 -14.200  0.0000E+00  0.0000E+00
 -14.190  0.0000E+00  0.0000E+00
 -14.180  0.0000E+00  0.0000E+00
 -14.170  0.0000E+00  0.0000E+00
 -14.160  0.0000E+00  0.0000E+00
 -14.150  0.0000E+00  0.0000E+00
 -14.140  0.0000E+00  0.0000E+00
 -14.130  0.0000E+00  0.0000E+00
 -14.120  0.0000E+00  0.0000E+00
 -14.110  0.0000E+00  0.0000E+00
 -14.100  0.0000E+00  0.0000E+00
 -14.090  0.0000E+00  0.0000E+00
 -14.080  0.0000E+00  0.0000E+00
 -14.070  0.0000E+00  0.0000E+00
 -14.060  0.0000E+00  0.0000E+00
 -14.050  0.0000E+00  0.0000E+00
 -14.040  0.0000E+00  0.0000E+00
 -14.030  0.0000E+00  0.0000E+00
 -14.020  0.0000E+00  0.0000E+00
 -14.010  0.0000E+00  0.0000E+00
 -14.000  0.0000E+00  0.0000E+00
 -13.990  0.0000E+00  0.0000E+00
 -13.980  0.0000E+00  0.0000E+00
 -13.970  0.0000E+00  0.0000E+00
 -13.960  0.0000E+00  0.0000E+00
 -13.950  0.0000E+00  0.0000E+00
 -13.940  0.0000E+00  0.0000E+00
 -13.930  0.0000E+00  0.0000E+00
 -13.920  0.0000E+00  0.0000E+00
 -13.910  0.0000E+00  0.0000E+00
 -13.900  0.0000E+00  0.0000E+00
 -13.890  0.0000E+00  0.0000E+00
 -13.880  0.0000E+00  0.0000E+00
 -13.870  0.0000E+00  0.0000E+00
 -13.860  0.0000E+00  0.0000E+00
 -13.850  0.0000E+00  0.0000E+00
 -13.840  0.0000E+00  0.0000E+00
 -13.830  0.0000E+00  0.0000E+00
 -13.820  0.0000E+00  0.0000E+00
 -13.810  0.0000E+00  0.0000E+00
 -13.800  0.0000E+00  0.0000E+00
 -13.790  0.0000E+00  0.0000E+00
 -13.780  0.0000E+00  0.0000E+00
 -13.770  0.0000E+00  0.0000E+00
 -13.760  0.0000E+00  0.0000E+00
 -13.750  0.0000E+00  0.0000E+00
 -13.740  0.0000E+00  0.0000E+00
 -13.730  0.0000E+00  0.0000E+00
 -13.720  0.0000E+00  0.0000E+00
 -13.710  0.0000E+00  0.0000E+00
 -13.700  0.0000E+00  0.0000E+00
 -13.690  0.0000E+00  0.0000E+00
 -13.680  0.0000E+00  0.0000E+00
 -13.670  0.0000E+00  0.0000E+00
 -13.660  0.0000E+00  0.0000E+00
 -13.650  0.0000E+00  0.0000E+00
 -13.640  0.0000E+00  0.0000E+00
 -13.630  0.0000E+00  0.0000E+00
 -13.620  0.0000E+00  0.0000E+00
 -13.610  0.0000E+00  0.0000E+00
 -13.600  0.0000E+00  0.0000E+00
 -13.590  0.0000E+00  0.0000E+00
 -13.580  0.0000E+00  0.0000E+00
 -13.570  0.0000E+00  0.0000E+00
 -13.560  0.0000E+00  0.0000E+00
 -13.550  0.0000E+00  0.0000E+00
 -13.540  0.0000E+00  0.0000E+00
 -13.530  0.0000E+00  0.0000E+00
 -13.520  0.0000E+00  0.0000E+00
 -13.510  0.0000E+00  0.0000E+00
 -13.500  0.0000E+00  0.0000E+00
 -13.490  0.0000E+00  0.0000E+00
 -13.480  0.0000E+00  0.0000E+00
 -13.470  0.0000E+00  0.0000E+00
 -13.460  0.0000E+00  0.0000E+00
 -13.450  0.0000E+00  0.0000E+00
 -13.440  0.0000E+00  0.0000E+00
 -13.430  0.0000E+00  0.0000E+00
 -13.420  0.0000E+00  0.0000E+00
 -13.410  0.0000E+00  0.0000E+00
 -13.400  0.0000E+00  0.0000E+00
 -13.390  0.0000E+00  0.0000E+00
 -13.380  0.0000E+00  0.0000E+00
 -13.370  0.0000E+00  0.0000E+00
 -13.360  0.0000E+00  0.0000E+00
 -13.350  0.0000E+00  0.0000E+00
 -13.340  0.0000E+00  0.0000E+00
 -13.330  0.0000E+00  0.0000E+00
 -13.320  0.0000E+00  0.0000E+00
 -13.310  0.0000E+00  0.0000E+00
 -13.300  0.0000E+00  0.0000E+00
 -13.290  0.0000E+00  0.0000E+00
 -13.280  0.0000E+00  0.0000E+00
 -13.270  0.0000E+00  0.0000E+00
 -13.260  0.0000E+00  0.0000E+00
 -13.250  0.0000E+00  0.0000E+00
 -13.240  0.0000E+00  0.0000E+00
 -13.230  0.0000E+00  0.0000E+00
 -13.220  0.0000E+00  0.0000E+00
 -13.210  0.0000E+00  0.0000E+00
 -13.200  0.0000E+00  0.0000E+00
 -13.190  0.0000E+00  0.0000E+00
 -13.180  0.0000E+00  0.0000E+00
 -13.170  0.0000E+00  0.0000E+00
 -13.160  0.0000E+00  0.0000E+00
 -13.150  0.0000E+00  0.0000E+00
 -13.140  0.0000E+00  0.0000E+00
 -13.130  0.0000E+00  0.0000E+00
 -13.120  0.0000E+00  0.0000E+00
 -13.110  0.0000E+00  0.0000E+00
 -13.100  0.0000E+00  0.0000E+00
 -13.090  0.0000E+00  0.0000E+00
 -13.080  0.0000E+00  0.0000E+00
 -13.070  0.0000E+00  0.0000E+00
 -13.060  0.0000E+00  0.0000E+00
 -13.050  0.0000E+00  0.0000E+00
 -13.040  0.0000E+00  0.0000E+00
 -13.030  0.0000E+00  0.0000E+00
 -13.020  0.0000E+00  0.0000E+00
 -13.010  0.0000E+00  0.0000E+00
 -13.000  0.0000E+00  0.0000E+00
 -12.990  0.0000E+00  0.0000E+00
 -12.980  0.0000E+00  0.0000E+00
 -12.970  0.0000E+00  0.0000E+00
 -12.960  0.0000E+00  0.0000E+00
 -12.950  0.0000E+00  0.0000E+00
 -12.940  0.0000E+00  0.0000E+00
 -12.930  0.0000E+00  0.0000E+00
 -12.920  0.0000E+00  0.0000E+00
 -12.910  0.0000E+00  0.0000E+00
 -12.900  0.0000E+00  0.0000E+00
 -12.890  0.0000E+00  0.0000E+00
 -12.880  0.0000E+00  0.0000E+00
 -12.870  0.0000E+00  0.0000E+00
 -12.860  0.0000E+00  0.0000E+00
 -12.850  0.0000E+00  0.0000E+00
 -12.840  0.0000E+00  0.0000E+00
 -12.830  0.0000E+00  0.0000E+00
 -12.820  0.0000E+00  0.0000E+00
 -12.810  0.0000E+00  0.0000E+00
 -12.800  0.0000E+00  0.0000E+00
 -12.790  0.0000E+00  0.0000E+00
 -12.780  0.0000E+00  0.0000E+00
 -12.770  0.0000E+00  0.0000E+00
 -12.760  0.0000E+00  0.0000E+00
 -12.750  0.0000E+00  0.0000E+00
 -12.740  0.0000E+00  0.0000E+00
 -12.730  0.0000E+00  0.0000E+00
 -12.720  0.0000E+00  0.0000E+00
 -12.710  0.0000E+00  0.0000E+00
 -12.700  0.0000E+00  0.0000E+00
 -12.690  0.0000E+00  0.0000E+00
 -12.680  0.0000E+00  0.0000E+00
 -12.670  0.0000E+00  0.0000E+00
 -12.660  0.0000E+00  0.0000E+00
 -12.650  0.0000E+00  0.0000E+00
 -12.640  0.0000E+00  0.0000E+00
 -12.630  0.0000E+00  0.0000E+00
 -12.620  0.0000E+00  0.0000E+00
 -12.610  0.0000E+00  0.0000E+00
 -12.600  0.0000E+00  0.0000E+00
 -12.590  0.0000E+00  0.0000E+00
 -12.580  0.0000E+00  0.0000E+00
 -12.570  0.0000E+00  0.0000E+00
 -12.560  0.0000E+00  0.0000E+00
 -12.550  0.0000E+00  0.0000E+00
 -12.540  0.0000E+00  0.0000E+00
 -12.530  0.0000E+00  0.0000E+00
 -12.520  0.0000E+00  0.0000E+00
 -12.510  0.0000E+00  0.0000E+00
 -12.500  0.0000E+00  0.0000E+00
 -12.490  0.0000E+00  0.0000E+00
 -12.480  0.0000E+00  0.0000E+00
 -12.470  0.0000E+00  0.0000E+00
 -12.460  0.0000E+00  0.0000E+00
 -12.450  0.0000E+00  0.0000E+00
 -12.440  0.0000E+00  0.0000E+00
 -12.430  0.0000E+00  0.0000E+00
 -12.420  0.0000E+00  0.0000E+00
 -12.410  0.0000E+00  0.0000E+00
 -12.400  0.0000E+00  0.0000E+00
 -12.390  0.0000E+00  0.0000E+00
 -12.380  0.0000E+00  0.0000E+00
 -12.370  0.0000E+00  0.0000E+00
 -12.360  0.0000E+00  0.0000E+00
 -12.350  0.0000E+00  0.0000E+00
 -12.340  0.0000E+00  0.0000E+00
 -12.330  0.0000E+00  0.0000E+00
 -12.320  0.0000E+00  0.0000E+00
 -12.310  0.0000E+00  0.0000E+00
 -12.300  0.0000E+00  0.0000E+00
 -12.290  0.0000E+00  0.0000E+00
 -12.280  0.0000E+00  0.0000E+00
 -12.270  0.0000E+00  0.0000E+00
 -12.260  0.0000E+00  0.0000E+00
 -12.250  0.0000E+00  0.0000E+00
 -12.240  0.0000E+00  0.0000E+00
 -12.230  0.0000E+00  0.0000E+00
 -12.220  0.0000E+00  0.0000E+00
 -12.210  0.0000E+00  0.0000E+00
 -12.200  0.0000E+00  0.0000E+00
 -12.190  0.0000E+00  0.0000E+00
 -12.180  0.0000E+00  0.0000E+00
 -12.170  0.0000E+00  0.0000E+00
 -12.160  0.0000E+00  0.0000E+00
 -12.150  0.0000E+00  0.0000E+00
 -12.140  0.0000E+00  0.0000E+00
 -12.130  0.0000E+00  0.0000E+00
 -12.120  0.0000E+00  0.0000E+00
 -12.110  0.0000E+00  0.0000E+00
 -12.100  0.0000E+00  0.0000E+00
 -12.090  0.0000E+00  0.0000E+00
 -12.080  0.0000E+00  0.0000E+00
 -12.070  0.0000E+00  0.0000E+00
 -12.060  0.0000E+00  0.0000E+00
 -12.050  0.0000E+00  0.0000E+00
 -12.040  0.0000E+00  0.0000E+00
 -12.030  0.0000E+00  0.0000E+00
 -12.020  0.0000E+00  0.0000E+00
 -12.010  0.0000E+00  0.0000E+00
 -12.000  0.0000E+00  0.0000E+00
 -11.990  0.0000E+00  0.0000E+00
 -11.980  0.0000E+00  0.0000E+00
 -11.970  0.0000E+00  0.0000E+00
 -11.960  0.0000E+00  0.0000E+00
 -11.950  0.0000E+00  0.0000E+00
 -11.940  0.0000E+00  0.0000E+00
 -11.930  0.0000E+00  0.0000E+00
 -11.920  0.0000E+00  0.0000E+00
 -11.910  0.0000E+00  0.0000E+00
 -11.900  0.0000E+00  0.0000E+00
 -11.890  0.0000E+00  0.0000E+00
 -11.880  0.0000E+00  0.0000E+00
 -11.870  0.0000E+00  0.0000E+00
 -11.860  0.0000E+00  0.0000E+00
 -11.850  0.0000E+00  0.0000E+00
 -11.840  0.0000E+00  0.0000E+00
 -11.830  0.0000E+00  0.0000E+00
 -11.820  0.0000E+00  0.0000E+00
 -11.810  0.0000E+00  0.0000E+00
 -11.800  0.0000E+00  0.0000E+00
 -11.790  0.0000E+00  0.0000E+00
 -11.780  0.0000E+00  0.0000E+00
 -11.770  0.0000E+00  0.0000E+00
 -11.760  0.0000E+00  0.0000E+00
 -11.750  0.0000E+00  0.0000E+00
 -11.740  0.0000E+00  0.0000E+00
 -11.730  0.0000E+00  0.0000E+00
 -11.720  0.0000E+00  0.0000E+00
 -11.710  0.0000E+00  0.0000E+00
 -11.700  0.0000E+00  0.0000E+00
 -11.690  0.0000E+00  0.0000E+00
 -11.680  0.0000E+00  0.0000E+00
 -11.670  0.0000E+00  0.0000E+00
 -11.660  0.0000E+00  0.0000E+00
 -11.650  0.0000E+00  0.0000E+00
 -11.640  0.0000E+00  0.0000E+00
 -11.630  0.0000E+00  0.0000E+00
 -11.620  0.0000E+00  0.0000E+00
 -11.610  0.0000E+00  0.0000E+00
 -11.600  0.0000E+00  0.0000E+00
 -11.590  0.0000E+00  0.0000E+00
 -11.580  0.0000E+00  0.0000E+00
 -11.570  0.0000E+00  0.0000E+00
 -11.560  0.0000E+00  0.0000E+00
 -11.550  0.0000E+00  0.0000E+00
 -11.540  0.0000E+00  0.0000E+00
 -11.530  0.0000E+00  0.0000E+00
 -11.520  0.0000E+00  0.0000E+00
 -11.510  0.0000E+00  0.0000E+00
 -11.500  0.0000E+00  0.0000E+00
 -11.490  0.0000E+00  0.0000E+00
 -11.480  0.0000E+00  0.0000E+00
 -11.470  0.0000E+00  0.0000E+00
 -11.460  0.0000E+00  0.0000E+00
 -11.450  0.0000E+00  0.0000E+00
 -11.440  0.0000E+00  0.0000E+00
 -11.430  0.0000E+00  0.0000E+00
 -11.420  0.0000E+00  0.0000E+00
 -11.410  0.0000E+00  0.0000E+00
 -11.400  0.0000E+00  0.0000E+00
 -11.390  0.0000E+00  0.0000E+00
 -11.380  0.0000E+00  0.0000E+00
 -11.370  0.0000E+00  0.0000E+00
 -11.360  0.0000E+00  0.0000E+00
 -11.350  0.0000E+00  0.0000E+00
 -11.340  0.0000E+00  0.0000E+00
 -11.330  0.0000E+00  0.0000E+00
 -11.320  0.0000E+00  0.0000E+00
 -11.310  0.0000E+00  0.0000E+00
 -11.300  0.0000E+00  0.0000E+00
 -11.290  0.0000E+00  0.0000E+00
 -11.280  0.0000E+00  0.0000E+00
 -11.270  0.0000E+00  0.0000E+00
 -11.260  0.0000E+00  0.0000E+00
 -11.250  0.0000E+00  0.0000E+00
 -11.240  0.0000E+00  0.0000E+00
 -11.230  0.0000E+00  0.0000E+00
 -11.220  0.0000E+00  0.0000E+00
 -11.210  0.0000E+00  0.0000E+00
 -11.200  0.0000E+00  0.0000E+00
 -11.190  0.0000E+00  0.0000E+00
 -11.180  0.0000E+00  0.0000E+00
 -11.170  0.0000E+00  0.0000E+00
 -11.160  0.0000E+00  0.0000E+00
 -11.150  0.0000E+00  0.0000E+00
 -11.140  0.0000E+00  0.0000E+00
 -11.130  0.0000E+00  0.0000E+00
 -11.120  0.0000E+00  0.0000E+00
 -11.110  0.0000E+00  0.0000E+00
 -11.100  0.0000E+00  0.0000E+00
 -11.090  0.0000E+00  0.0000E+00
 -11.080  0.0000E+00  0.0000E+00
 -11.070  0.0000E+00  0.0000E+00
 -11.060  0.0000E+00  0.0000E+00
 -11.050  0.0000E+00  0.0000E+00
 -11.040  0.0000E+00  0.0000E+00
 -11.030  0.0000E+00  0.0000E+00
 -11.020  0.0000E+00  0.0000E+00
 -11.010  0.0000E+00  0.0000E+00
 -11.000  0.0000E+00  0.0000E+00
 -10.990  0.0000E+00  0.0000E+00
 -10.980  0.0000E+00  0.0000E+00
 -10.970  0.0000E+00  0.0000E+00
 -10.960  0.0000E+00  0.0000E+00
 -10.950  0.0000E+00  0.0000E+00
 -10.940  0.0000E+00  0.0000E+00
 -10.930  0.0000E+00  0.0000E+00
 -10.920  0.0000E+00  0.0000E+00
 -10.910  0.0000E+00  0.0000E+00
 -10.900  0.0000E+00  0.0000E+00
 -10.890  0.0000E+00  0.0000E+00
 -10.880  0.0000E+00  0.0000E+00
 -10.870  0.0000E+00  0.0000E+00
 -10.860  0.0000E+00  0.0000E+00
 -10.850  0.0000E+00  0.0000E+00
 -10.840  0.0000E+00  0.0000E+00
 -10.830  0.0000E+00  0.0000E+00
 -10.820  0.0000E+00  0.0000E+00
 -10.810  0.0000E+00  0.0000E+00
 -10.800  0.0000E+00  0.0000E+00
 -10.790  0.0000E+00  0.0000E+00
 -10.780  0.0000E+00  0.0000E+00
 -10.770  0.0000E+00  0.0000E+00
 -10.760  0.0000E+00  0.0000E+00
 -10.750  0.0000E+00  0.0000E+00
 -10.740  0.0000E+00  0.0000E+00
 -10.730  0.0000E+00  0.0000E+00
 -10.720  0.0000E+00  0.0000E+00
 -10.710  0.0000E+00  0.0000E+00
 -10.700  0.0000E+00  0.0000E+00
 -10.690  0.0000E+00  0.0000E+00
 -10.680  0.0000E+00  0.0000E+00
 -10.670  0.0000E+00  0.0000E+00
 -10.660  0.0000E+00  0.0000E+00
 -10.650  0.0000E+00  0.0000E+00
 -10.640  0.0000E+00  0.0000E+00
 -10.630  0.0000E+00  0.0000E+00
 -10.620  0.0000E+00  0.0000E+00
 -10.610  0.0000E+00  0.0000E+00
 -10.600  0.0000E+00  0.0000E+00
 -10.590  0.0000E+00  0.0000E+00
 -10.580  0.0000E+00  0.0000E+00
 -10.570  0.0000E+00  0.0000E+00
 -10.560  0.0000E+00  0.0000E+00
 -10.550  0.0000E+00  0.0000E+00
 -10.540  0.0000E+00  0.0000E+00
 -10.530  0.0000E+00  0.0000E+00
 -10.520  0.0000E+00  0.0000E+00
 -10.510  0.0000E+00  0.0000E+00
 -10.500  0.0000E+00  0.0000E+00
 -10.490  0.0000E+00  0.0000E+00
 -10.480  0.0000E+00  0.0000E+00
 -10.470  0.0000E+00  0.0000E+00
 -10.460  0.0000E+00  0.0000E+00
 -10.450  0.0000E+00  0.0000E+00
 -10.440  0.0000E+00  0.0000E+00
 -10.430  0.0000E+00  0.0000E+00
 -10.420  0.0000E+00  0.0000E+00
 -10.410  0.0000E+00  0.0000E+00
 -10.400  0.0000E+00  0.0000E+00
 -10.390  0.0000E+00  0.0000E+00
 -10.380  0.0000E+00  0.0000E+00
 -10.370  0.0000E+00  0.0000E+00
 -10.360  0.0000E+00  0.0000E+00
 -10.350  0.0000E+00  0.0000E+00
 -10.340  0.0000E+00  0.0000E+00
 -10.330  0.0000E+00  0.0000E+00
 -10.320  0.0000E+00  0.0000E+00
 -10.310  0.0000E+00  0.0000E+00
 -10.300  0.0000E+00  0.0000E+00
 -10.290  0.0000E+00  0.0000E+00
 -10.280  0.0000E+00  0.0000E+00
 -10.270  0.0000E+00  0.0000E+00
 -10.260  0.0000E+00  0.0000E+00
 -10.250  0.0000E+00  0.0000E+00
 -10.240  0.0000E+00  0.0000E+00
 -10.230  0.0000E+00  0.0000E+00
 -10.220  0.0000E+00  0.0000E+00
 -10.210  0.0000E+00  0.0000E+00
 -10.200  0.0000E+00  0.0000E+00
 -10.190  0.0000E+00  0.0000E+00
 -10.180  0.0000E+00  0.0000E+00
 -10.170  0.0000E+00  0.0000E+00
 -10.160  0.0000E+00  0.0000E+00
 -10.150  0.0000E+00  0.0000E+00
 -10.140  0.0000E+00  0.0000E+00
 -10.130  0.0000E+00  0.0000E+00
 -10.120  0.0000E+00  0.0000E+00
 -10.110  0.0000E+00  0.0000E+00
 -10.100  0.0000E+00  0.0000E+00
 -10.090  0.0000E+00  0.0000E+00
 -10.080  0.0000E+00  0.0000E+00
 -10.070  0.0000E+00  0.0000E+00
 -10.060  0.0000E+00  0.0000E+00
 -10.050  0.0000E+00  0.0000E+00
 -10.040  0.0000E+00  0.0000E+00
 -10.030  0.0000E+00  0.0000E+00
 -10.020  0.0000E+00  0.0000E+00
 -10.010  0.0000E+00  0.0000E+00
 -10.000  0.0000E+00  0.0000E+00
  -9.990  0.0000E+00  0.0000E+00
  -9.980  0.0000E+00  0.0000E+00
  -9.970  0.0000E+00  0.0000E+00
  -9.960  0.0000E+00  0.0000E+00
  -9.950  0.0000E+00  0.0000E+00
  -9.940  0.0000E+00  0.0000E+00
  -9.930  0.0000E+00  0.0000E+00
  -9.920  0.0000E+00  0.0000E+00
  -9.910  0.0000E+00  0.0000E+00
  -9.900  0.0000E+00  0.0000E+00
  -9.890  0.0000E+00  0.0000E+00
  -9.880  0.0000E+00  0.0000E+00
  -9.870  0.0000E+00  0.0000E+00
  -9.860  0.0000E+00  0.0000E+00
  -9.850  0.0000E+00  0.0000E+00
  -9.840  0.0000E+00  0.0000E+00
  -9.830  0.0000E+00  0.0000E+00
  -9.820  0.0000E+00  0.0000E+00
  -9.810  0.0000E+00  0.0000E+00
  -9.800  0.0000E+00  0.0000E+00
  -9.790  0.0000E+00  0.0000E+00
  -9.780  0.0000E+00  0.0000E+00
  -9.770  0.0000E+00  0.0000E+00
  -9.760  0.0000E+00  0.0000E+00
  -9.750  0.0000E+00  0.0000E+00
  -9.740  0.0000E+00  0.0000E+00
  -9.730  0.0000E+00  0.0000E+00
  -9.720  0.0000E+00  0.0000E+00
  -9.710  0.0000E+00  0.0000E+00
  -9.700  0.0000E+00  0.0000E+00
  -9.690  0.0000E+00  0.0000E+00
  -9.680  0.0000E+00  0.0000E+00
  -9.670  0.0000E+00  0.0000E+00
  -9.660  0.0000E+00  0.0000E+00
  -9.650  0.0000E+00  0.0000E+00
  -9.640  0.0000E+00  0.0000E+00
  -9.630  0.0000E+00  0.0000E+00
  -9.620  0.0000E+00  0.0000E+00
  -9.610  0.0000E+00  0.0000E+00
  -9.600  0.0000E+00  0.0000E+00
  -9.590  0.0000E+00  0.0000E+00
  -9.580  0.0000E+00  0.0000E+00
  -9.570  0.0000E+00  0.0000E+00
  -9.560  0.0000E+00  0.0000E+00
  -9.550  0.0000E+00  0.0000E+00
  -9.540  0.0000E+00  0.0000E+00
  -9.530  0.0000E+00  0.0000E+00
  -9.520  0.0000E+00  0.0000E+00
  -9.510  0.0000E+00  0.0000E+00
  -9.500  0.0000E+00  0.0000E+00
  -9.490  0.0000E+00  0.0000E+00
  -9.480  0.0000E+00  0.0000E+00
  -9.470  0.0000E+00  0.0000E+00
  -9.460  0.0000E+00  0.0000E+00
  -9.450  0.0000E+00  0.0000E+00
  -9.440  0.0000E+00  0.0000E+00
  -9.430  0.0000E+00  0.0000E+00
  -9.420  0.0000E+00  0.0000E+00
  -9.410  0.0000E+00  0.0000E+00
  -9.400  0.0000E+00  0.0000E+00
  -9.390  0.0000E+00  0.0000E+00
  -9.380  0.0000E+00  0.0000E+00
  -9.370  0.0000E+00  0.0000E+00
  -9.360  0.0000E+00  0.0000E+00
  -9.350  0.0000E+00  0.0000E+00
  -9.340  0.0000E+00  0.0000E+00
  -9.330  0.0000E+00  0.0000E+00
  -9.320  0.0000E+00  0.0000E+00
  -9.310  0.0000E+00  0.0000E+00
  -9.300  0.0000E+00  0.0000E+00
  -9.290  0.0000E+00  0.0000E+00
  -9.280  0.0000E+00  0.0000E+00
  -9.270  0.0000E+00  0.0000E+00
  -9.260  0.0000E+00  0.0000E+00
  -9.250  0.0000E+00  0.0000E+00
  -9.240  0.0000E+00  0.0000E+00
  -9.230  0.0000E+00  0.0000E+00
  -9.220  0.0000E+00  0.0000E+00
  -9.210  0.0000E+00  0.0000E+00
  -9.200  0.0000E+00  0.0000E+00
  -9.190  0.0000E+00  0.0000E+00
  -9.180  0.0000E+00  0.0000E+00
  -9.170  0.0000E+00  0.0000E+00
  -9.160  0.0000E+00  0.0000E+00
  -9.150  0.0000E+00  0.0000E+00
  -9.140  0.0000E+00  0.0000E+00
  -9.130  0.0000E+00  0.0000E+00
  -9.120  0.0000E+00  0.0000E+00
  -9.110  0.0000E+00  0.0000E+00
  -9.100  0.0000E+00  0.0000E+00
  -9.090  0.0000E+00  0.0000E+00
  -9.080  0.0000E+00  0.0000E+00
  -9.070  0.0000E+00  0.0000E+00
  -9.060  0.0000E+00  0.0000E+00
  -9.050  0.0000E+00  0.0000E+00
  -9.040  0.0000E+00  0.0000E+00
  -9.030  0.0000E+00  0.0000E+00
  -9.020  0.0000E+00  0.0000E+00
  -9.010  0.0000E+00  0.0000E+00
  -9.000  0.0000E+00  0.0000E+00
  -8.990  0.0000E+00  0.0000E+00
  -8.980  0.0000E+00  0.0000E+00
  -8.970  0.0000E+00  0.0000E+00
  -8.960  0.0000E+00  0.0000E+00
  -8.950  0.0000E+00  0.0000E+00
  -8.940  0.0000E+00  0.0000E+00
  -8.930  0.0000E+00  0.0000E+00
  -8.920  0.0000E+00  0.0000E+00
  -8.910  0.0000E+00  0.0000E+00
  -8.900  0.0000E+00  0.0000E+00
  -8.890  0.0000E+00  0.0000E+00
  -8.880  0.0000E+00  0.0000E+00
  -8.870  0.0000E+00  0.0000E+00
  -8.860  0.0000E+00  0.0000E+00
  -8.850  0.0000E+00  0.0000E+00
  -8.840  0.0000E+00  0.0000E+00
  -8.830  0.0000E+00  0.0000E+00
  -8.820  0.0000E+00  0.0000E+00
  -8.810  0.0000E+00  0.0000E+00
  -8.800  0.0000E+00  0.0000E+00
  -8.790  0.0000E+00  0.0000E+00
  -8.780  0.0000E+00  0.0000E+00
  -8.770  0.0000E+00  0.0000E+00
  -8.760  0.0000E+00  0.0000E+00
  -8.750  0.0000E+00  0.0000E+00
  -8.740  0.0000E+00  0.0000E+00
  -8.730  0.0000E+00  0.0000E+00
  -8.720  0.0000E+00  0.0000E+00
  -8.710  0.0000E+00  0.0000E+00
  -8.700  0.0000E+00  0.0000E+00
  -8.690  0.0000E+00  0.0000E+00
  -8.680  0.0000E+00  0.0000E+00
  -8.670  0.0000E+00  0.0000E+00
  -8.660  0.0000E+00  0.0000E+00
  -8.650  0.0000E+00  0.0000E+00
  -8.640  0.0000E+00  0.0000E+00
  -8.630  0.0000E+00  0.0000E+00
  -8.620  0.0000E+00  0.0000E+00
  -8.610  0.0000E+00  0.0000E+00
  -8.600  0.0000E+00  0.0000E+00
  -8.590  0.0000E+00  0.0000E+00
  -8.580  0.0000E+00  0.0000E+00
  -8.570  0.0000E+00  0.0000E+00
  -8.560  0.0000E+00  0.0000E+00
  -8.550  0.0000E+00  0.0000E+00
  -8.540  0.0000E+00  0.0000E+00
  -8.530  0.0000E+00  0.0000E+00
  -8.520  0.0000E+00  0.0000E+00
  -8.510  0.0000E+00  0.0000E+00
  -8.500  0.0000E+00  0.0000E+00
  -8.490  0.0000E+00  0.0000E+00
  -8.480  0.0000E+00  0.0000E+00
  -8.470  0.0000E+00  0.0000E+00
  -8.460  0.0000E+00  0.0000E+00
  -8.450  0.0000E+00  0.0000E+00
  -8.440  0.0000E+00  0.0000E+00
  -8.430  0.0000E+00  0.0000E+00
  -8.420  0.0000E+00  0.0000E+00
  -8.410  0.0000E+00  0.0000E+00
  -8.400  0.0000E+00  0.0000E+00
  -8.390  0.0000E+00  0.0000E+00
  -8.380  0.0000E+00  0.0000E+00
  -8.370  0.0000E+00  0.0000E+00
  -8.360  0.0000E+00  0.0000E+00
  -8.350  0.0000E+00  0.0000E+00
  -8.340  0.0000E+00  0.0000E+00
  -8.330  0.0000E+00  0.0000E+00
  -8.320  0.0000E+00  0.0000E+00
  -8.310  0.0000E+00  0.0000E+00
  -8.300  0.0000E+00  0.0000E+00
  -8.290  0.0000E+00  0.0000E+00
  -8.280  0.0000E+00  0.0000E+00
  -8.270  0.0000E+00  0.0000E+00
  -8.260  0.0000E+00  0.0000E+00
  -8.250  0.0000E+00  0.0000E+00
  -8.240  0.0000E+00  0.0000E+00
  -8.230  0.0000E+00  0.0000E+00
  -8.220  0.0000E+00  0.0000E+00
  -8.210  0.0000E+00  0.0000E+00
  -8.200  0.0000E+00  0.0000E+00
  -8.190  0.0000E+00  0.0000E+00
  -8.180  0.0000E+00  0.0000E+00
  -8.170  0.0000E+00  0.0000E+00
  -8.160  0.0000E+00  0.0000E+00
  -8.150  0.0000E+00  0.0000E+00
  -8.140  0.0000E+00  0.0000E+00
  -8.130  0.0000E+00  0.0000E+00
  -8.120  0.0000E+00  0.0000E+00
  -8.110  0.0000E+00  0.0000E+00
  -8.100  0.0000E+00  0.0000E+00
  -8.090  0.0000E+00  0.0000E+00
  -8.080  0.0000E+00  0.0000E+00
  -8.070  0.0000E+00  0.0000E+00
  -8.060  0.0000E+00  0.0000E+00
  -8.050  0.0000E+00  0.0000E+00
  -8.040  0.0000E+00  0.0000E+00
  -8.030  0.0000E+00  0.0000E+00
  -8.020  0.0000E+00  0.0000E+00
  -8.010  0.0000E+00  0.0000E+00
  -8.000  0.0000E+00  0.0000E+00
  -7.990  0.0000E+00  0.0000E+00
  -7.980  0.0000E+00  0.0000E+00
  -7.970  0.0000E+00  0.0000E+00
  -7.960  0.0000E+00  0.0000E+00
  -7.950  0.0000E+00  0.0000E+00
  -7.940  0.0000E+00  0.0000E+00
  -7.930  0.0000E+00  0.0000E+00
  -7.920  0.0000E+00  0.0000E+00
  -7.910  0.0000E+00  0.0000E+00
  -7.900  0.0000E+00  0.0000E+00
  -7.890  0.0000E+00  0.0000E+00
  -7.880  0.0000E+00  0.0000E+00
  -7.870  0.0000E+00  0.0000E+00
  -7.860  0.0000E+00  0.0000E+00
  -7.850  0.0000E+00  0.0000E+00
  -7.840  0.0000E+00  0.0000E+00
  -7.830  0.0000E+00  0.0000E+00
  -7.820  0.0000E+00  0.0000E+00
  -7.810  0.0000E+00  0.0000E+00
  -7.800  0.0000E+00  0.0000E+00
  -7.790  0.0000E+00  0.0000E+00
  -7.780  0.0000E+00  0.0000E+00
  -7.770  0.0000E+00  0.0000E+00
  -7.760  0.0000E+00  0.0000E+00
  -7.750  0.0000E+00  0.0000E+00
  -7.740  0.0000E+00  0.0000E+00
  -7.730  0.0000E+00  0.0000E+00
  -7.720  0.0000E+00  0.0000E+00
  -7.710  0.0000E+00  0.0000E+00
  -7.700  0.0000E+00  0.0000E+00
  -7.690  0.0000E+00  0.0000E+00
  -7.680  0.0000E+00  0.0000E+00
  -7.670  0.0000E+00  0.0000E+00
  -7.660  0.0000E+00  0.0000E+00
  -7.650  0.0000E+00  0.0000E+00
  -7.640  0.0000E+00  0.0000E+00
  -7.630  0.0000E+00  0.0000E+00
  -7.620  0.0000E+00  0.0000E+00
  -7.610  0.0000E+00  0.0000E+00
  -7.600  0.0000E+00  0.0000E+00
  -7.590  0.0000E+00  0.0000E+00
  -7.580  0.0000E+00  0.0000E+00
  -7.570  0.0000E+00  0.0000E+00
  -7.560  0.0000E+00  0.0000E+00
  -7.550  0.0000E+00  0.0000E+00
  -7.540  0.0000E+00  0.0000E+00
  -7.530  0.0000E+00  0.0000E+00
  -7.520  0.0000E+00  0.0000E+00
  -7.510  0.0000E+00  0.0000E+00
  -7.500  0.0000E+00  0.0000E+00
  -7.490  0.0000E+00  0.0000E+00
  -7.480  0.0000E+00  0.0000E+00
  -7.470  0.0000E+00  0.0000E+00
  -7.460  0.0000E+00  0.0000E+00
  -7.450  0.0000E+00  0.0000E+00
  -7.440  0.0000E+00  0.0000E+00
  -7.430  0.0000E+00  0.0000E+00
  -7.420  0.0000E+00  0.0000E+00
  -7.410  0.0000E+00  0.0000E+00
  -7.400  0.0000E+00  0.0000E+00
  -7.390  0.0000E+00  0.0000E+00
  -7.380  0.0000E+00  0.0000E+00
  -7.370  0.0000E+00  0.0000E+00
  -7.360  0.0000E+00  0.0000E+00
  -7.350  0.0000E+00  0.0000E+00
  -7.340  0.0000E+00  0.0000E+00
  -7.330  0.0000E+00  0.0000E+00
  -7.320  0.0000E+00  0.0000E+00
  -7.310  0.0000E+00  0.0000E+00
  -7.300  0.0000E+00  0.0000E+00
  -7.290  0.0000E+00  0.0000E+00
  -7.280  0.0000E+00  0.0000E+00
  -7.270  0.0000E+00  0.0000E+00
  -7.260  0.0000E+00  0.0000E+00
  -7.250  0.0000E+00  0.0000E+00
  -7.240  0.0000E+00  0.0000E+00
  -7.230  0.0000E+00  0.0000E+00
  -7.220  0.0000E+00  0.0000E+00
  -7.210  0.0000E+00  0.0000E+00
  -7.200  0.0000E+00  0.0000E+00
  -7.190  0.0000E+00  0.0000E+00
  -7.180  0.0000E+00  0.0000E+00
  -7.170  0.0000E+00  0.0000E+00
  -7.160  0.0000E+00  0.0000E+00
  -7.150  0.0000E+00  0.0000E+00
  -7.140  0.0000E+00  0.0000E+00
  -7.130  0.0000E+00  0.0000E+00
  -7.120  0.0000E+00  0.0000E+00
  -7.110  0.0000E+00  0.0000E+00
  -7.100  0.0000E+00  0.0000E+00
  -7.090  0.0000E+00  0.0000E+00
  -7.080  0.0000E+00  0.0000E+00
  -7.070  0.0000E+00  0.0000E+00
  -7.060  0.0000E+00  0.0000E+00
  -7.050  0.0000E+00  0.0000E+00
  -7.040  0.0000E+00  0.0000E+00
  -7.030  0.0000E+00  0.0000E+00
  -7.020  0.0000E+00  0.0000E+00
  -7.010  0.0000E+00  0.0000E+00
  -7.000  0.0000E+00  0.0000E+00
  -6.990  0.0000E+00  0.0000E+00
  -6.980  0.0000E+00  0.0000E+00
  -6.970  0.0000E+00  0.0000E+00
  -6.960  0.0000E+00  0.0000E+00
  -6.950  0.0000E+00  0.0000E+00
  -6.940  0.0000E+00  0.0000E+00
  -6.930  0.0000E+00  0.0000E+00
  -6.920  0.0000E+00  0.0000E+00
  -6.910  0.0000E+00  0.0000E+00
  -6.900  0.0000E+00  0.0000E+00
  -6.890  0.0000E+00  0.0000E+00
  -6.880  0.0000E+00  0.0000E+00
  -6.870  0.0000E+00  0.0000E+00
  -6.860  0.0000E+00  0.0000E+00
  -6.850  0.0000E+00  0.0000E+00
  -6.840  0.0000E+00  0.0000E+00
  -6.830  0.0000E+00  0.0000E+00
  -6.820  0.0000E+00  0.0000E+00
  -6.810  0.0000E+00  0.0000E+00
  -6.800  0.0000E+00  0.0000E+00
  -6.790  0.0000E+00  0.0000E+00
  -6.780  0.0000E+00  0.0000E+00
  -6.770  0.0000E+00  0.0000E+00
  -6.760  0.0000E+00  0.0000E+00
  -6.750  0.0000E+00  0.0000E+00
  -6.740  0.0000E+00  0.0000E+00
  -6.730  0.0000E+00  0.0000E+00
  -6.720  0.0000E+00  0.0000E+00
  -6.710  0.0000E+00  0.0000E+00
  -6.700  0.0000E+00  0.0000E+00
  -6.690  0.0000E+00  0.0000E+00
  -6.680  0.0000E+00  0.0000E+00
  -6.670  0.0000E+00  0.0000E+00
  -6.660  0.0000E+00  0.0000E+00
  -6.650  0.0000E+00  0.0000E+00
  -6.640  0.0000E+00  0.0000E+00
  -6.630  0.0000E+00  0.0000E+00
  -6.620  0.0000E+00  0.0000E+00
  -6.610  0.0000E+00  0.0000E+00
  -6.600  0.0000E+00  0.0000E+00
  -6.590  0.0000E+00  0.0000E+00
  -6.580  0.0000E+00  0.0000E+00
  -6.570  0.0000E+00  0.0000E+00
  -6.560  0.0000E+00  0.0000E+00
  -6.550  0.0000E+00  0.0000E+00
  -6.540  0.0000E+00  0.0000E+00
  -6.530  0.0000E+00  0.0000E+00
  -6.520  0.0000E+00  0.0000E+00
  -6.510  0.0000E+00  0.0000E+00
  -6.500  0.0000E+00  0.0000E+00
  -6.490  0.0000E+00  0.0000E+00
  -6.480  0.0000E+00  0.0000E+00
  -6.470  0.0000E+00  0.0000E+00
  -6.460  0.0000E+00  0.0000E+00
  -6.450  0.0000E+00  0.0000E+00
  -6.440  0.0000E+00  0.0000E+00
  -6.430  0.0000E+00  0.0000E+00
  -6.420  0.0000E+00  0.0000E+00
  -6.410  0.0000E+00  0.0000E+00
  -6.400  0.0000E+00  0.0000E+00
  -6.390  0.0000E+00  0.0000E+00
  -6.380  0.0000E+00  0.0000E+00
  -6.370  0.0000E+00  0.0000E+00
  -6.360  0.0000E+00  0.0000E+00
  -6.350  0.0000E+00  0.0000E+00
  -6.340  0.0000E+00  0.0000E+00
  -6.330  0.0000E+00  0.0000E+00
  -6.320  0.0000E+00  0.0000E+00
  -6.310  0.0000E+00  0.0000E+00
  -6.300  0.0000E+00  0.0000E+00
  -6.290  0.0000E+00  0.0000E+00
  -6.280  0.0000E+00  0.0000E+00
  -6.270  0.0000E+00  0.0000E+00
  -6.260  0.0000E+00  0.0000E+00
  -6.250  0.0000E+00  0.0000E+00
  -6.240  0.0000E+00  0.0000E+00
  -6.230  0.0000E+00  0.0000E+00
  -6.220  0.0000E+00  0.0000E+00
  -6.210  0.0000E+00  0.0000E+00
  -6.200  0.0000E+00  0.0000E+00
  -6.190  0.0000E+00  0.0000E+00
  -6.180  0.0000E+00  0.0000E+00
  -6.170  0.0000E+00  0.0000E+00
  -6.160  0.0000E+00  0.0000E+00
  -6.150  0.0000E+00  0.0000E+00
  -6.140  0.0000E+00  0.0000E+00
  -6.130  0.0000E+00  0.0000E+00
  -6.120  0.0000E+00  0.0000E+00
  -6.110  0.0000E+00  0.0000E+00
  -6.100  0.0000E+00  0.0000E+00
  -6.090  0.0000E+00  0.0000E+00
  -6.080  0.0000E+00  0.0000E+00
  -6.070  0.0000E+00  0.0000E+00
  -6.060  0.0000E+00  0.0000E+00
  -6.050  0.0000E+00  0.0000E+00
  -6.040  0.0000E+00  0.0000E+00
  -6.030  0.0000E+00  0.0000E+00
  -6.020  0.0000E+00  0.0000E+00
  -6.010  0.0000E+00  0.0000E+00
  -6.000  0.0000E+00  0.0000E+00
  -5.990  0.0000E+00  0.0000E+00
  -5.980  0.0000E+00  0.0000E+00
  -5.970  0.0000E+00  0.0000E+00
  -5.960  0.0000E+00  0.0000E+00
  -5.950  0.0000E+00  0.0000E+00
  -5.940  0.0000E+00  0.0000E+00
  -5.930  0.0000E+00  0.0000E+00
  -5.920  0.0000E+00  0.0000E+00
  -5.910  0.0000E+00  0.0000E+00
  -5.900  0.0000E+00  0.0000E+00
  -5.890  0.0000E+00  0.0000E+00
  -5.880  0.0000E+00  0.0000E+00
  -5.870  0.0000E+00  0.0000E+00
  -5.860  0.0000E+00  0.0000E+00
  -5.850  0.0000E+00  0.0000E+00
  -5.840  0.0000E+00  0.0000E+00
  -5.830  0.2548E-01  0.4434E-04
  -5.820  0.4198E+00  0.1519E-02
  -5.810  0.3511E+00  0.4646E-02
  -5.800  0.4863E+00  0.8773E-02
  -5.790  0.5920E+00  0.1430E-01
  -5.780  0.5934E+00  0.2004E-01
  -5.770  0.6694E+00  0.2634E-01
  -5.760  0.7552E+00  0.3347E-01
  -5.750  0.8083E+00  0.4136E-01
  -5.740  0.8451E+00  0.4964E-01
  -5.730  0.8686E+00  0.5822E-01
  -5.720  0.9139E+00  0.6710E-01
  -5.710  0.9773E+00  0.7656E-01
  -5.700  0.1043E+01  0.8666E-01
  -5.690  0.1071E+01  0.9728E-01
  -5.680  0.1093E+01  0.1081E+00
  -5.670  0.1126E+01  0.1192E+00
  -5.660  0.1156E+01  0.1306E+00
  -5.650  0.1188E+01  0.1423E+00
  -5.640  0.1232E+01  0.1544E+00
  -5.630  0.1282E+01  0.1669E+00
  -5.620  0.1327E+01  0.1800E+00
  -5.610  0.1345E+01  0.1934E+00
  -5.600  0.1359E+01  0.2069E+00
  -5.590  0.1385E+01  0.2206E+00
  -5.580  0.1417E+01  0.2346E+00
  -5.570  0.1447E+01  0.2489E+00
  -5.560  0.1476E+01  0.2635E+00
  -5.550  0.1509E+01  0.2785E+00
  -5.540  0.1547E+01  0.2937E+00
  -5.530  0.1587E+01  0.3094E+00
  -5.520  0.1604E+01  0.3254E+00
  -5.510  0.1625E+01  0.3415E+00
  -5.500  0.1644E+01  0.3579E+00
  -5.490  0.1660E+01  0.3744E+00
  -5.480  0.1687E+01  0.3911E+00
  -5.470  0.1716E+01  0.4081E+00
  -5.460  0.1744E+01  0.4254E+00
  -5.450  0.1773E+01  0.4430E+00
  -5.440  0.1802E+01  0.4609E+00
  -5.430  0.1831E+01  0.4791E+00
  -5.420  0.1858E+01  0.4975E+00
  -5.410  0.1878E+01  0.5162E+00
  -5.400  0.1896E+01  0.5351E+00
  -5.390  0.1914E+01  0.5541E+00
  -5.380  0.1935E+01  0.5734E+00
  -5.370  0.1955E+01  0.5928E+00
  -5.360  0.1973E+01  0.6125E+00
  -5.350  0.1998E+01  0.6323E+00
  -5.340  0.2024E+01  0.6525E+00
  -5.330  0.2051E+01  0.6728E+00
  -5.320  0.2079E+01  0.6935E+00
  -5.310  0.2106E+01  0.7144E+00
  -5.300  0.2132E+01  0.7356E+00
  -5.290  0.2144E+01  0.7570E+00
  -5.280  0.2162E+01  0.7785E+00
  -5.270  0.2181E+01  0.8002E+00
  -5.260  0.2199E+01  0.8221E+00
  -5.250  0.2219E+01  0.8442E+00
  -5.240  0.2240E+01  0.8665E+00
  -5.230  0.2261E+01  0.8890E+00
  -5.220  0.2284E+01  0.9117E+00
  -5.210  0.2307E+01  0.9347E+00
  -5.200  0.2336E+01  0.9579E+00
  -5.190  0.2372E+01  0.9814E+00
  -5.180  0.2416E+01  0.1005E+01
  -5.170  0.2471E+01  0.1030E+01
  -5.160  0.2531E+01  0.1055E+01
  -5.150  0.2573E+01  0.1080E+01
  -5.140  0.2606E+01  0.1106E+01
  -5.130  0.2635E+01  0.1132E+01
  -5.120  0.2685E+01  0.1159E+01
  -5.110  0.2711E+01  0.1186E+01
  -5.100  0.2718E+01  0.1213E+01
  -5.090  0.2761E+01  0.1241E+01
  -5.080  0.2760E+01  0.1268E+01
  -5.070  0.2737E+01  0.1296E+01
  -5.060  0.2696E+01  0.1323E+01
  -5.050  0.2639E+01  0.1350E+01
  -5.040  0.2579E+01  0.1376E+01
  -5.030  0.2506E+01  0.1401E+01
  -5.020  0.2482E+01  0.1426E+01
  -5.010  0.2527E+01  0.1451E+01
  -5.000  0.2597E+01  0.1477E+01
  -4.990  0.2619E+01  0.1503E+01
  -4.980  0.2615E+01  0.1529E+01
  -4.970  0.2606E+01  0.1555E+01
  -4.960  0.2625E+01  0.1581E+01
  -4.950  0.2642E+01  0.1608E+01
  -4.940  0.2687E+01  0.1634E+01
  -4.930  0.2734E+01  0.1661E+01
  -4.920  0.2774E+01  0.1689E+01
  -4.910  0.2806E+01  0.1717E+01
  -4.900  0.2881E+01  0.1745E+01
  -4.890  0.2944E+01  0.1774E+01
  -4.880  0.3001E+01  0.1804E+01
  -4.870  0.3056E+01  0.1834E+01
  -4.860  0.3111E+01  0.1865E+01
  -4.850  0.3166E+01  0.1897E+01
  -4.840  0.3181E+01  0.1928E+01
  -4.830  0.3181E+01  0.1960E+01
  -4.820  0.3180E+01  0.1992E+01
  -4.810  0.3168E+01  0.2024E+01
  -4.800  0.3185E+01  0.2055E+01
  -4.790  0.3179E+01  0.2087E+01
  -4.780  0.3160E+01  0.2119E+01
  -4.770  0.3114E+01  0.2151E+01
  -4.760  0.3034E+01  0.2181E+01
  -4.750  0.2960E+01  0.2211E+01
  -4.740  0.2916E+01  0.2241E+01
  -4.730  0.2891E+01  0.2270E+01
  -4.720  0.2876E+01  0.2298E+01
  -4.710  0.2852E+01  0.2327E+01
  -4.700  0.2861E+01  0.2356E+01
  -4.690  0.2934E+01  0.2385E+01
  -4.680  0.3064E+01  0.2414E+01
  -4.670  0.3230E+01  0.2446E+01
  -4.660  0.3437E+01  0.2479E+01
  -4.650  0.3579E+01  0.2515E+01
  -4.640  0.3640E+01  0.2551E+01
  -4.630  0.3708E+01  0.2587E+01
  -4.620  0.3758E+01  0.2625E+01
  -4.610  0.3741E+01  0.2662E+01
  -4.600  0.3721E+01  0.2700E+01
  -4.590  0.3697E+01  0.2737E+01
  -4.580  0.3633E+01  0.2773E+01
  -4.570  0.3576E+01  0.2809E+01
  -4.560  0.3530E+01  0.2845E+01
  -4.550  0.3455E+01  0.2880E+01
  -4.540  0.3371E+01  0.2914E+01
  -4.530  0.3302E+01  0.2947E+01
  -4.520  0.3272E+01  0.2980E+01
  -4.510  0.3332E+01  0.3013E+01
  -4.500  0.3410E+01  0.3047E+01
  -4.490  0.3472E+01  0.3081E+01
  -4.480  0.3565E+01  0.3116E+01
  -4.470  0.3682E+01  0.3153E+01
  -4.460  0.3778E+01  0.3190E+01
  -4.450  0.3886E+01  0.3228E+01
  -4.440  0.3946E+01  0.3267E+01
  -4.430  0.3975E+01  0.3307E+01
  -4.420  0.3959E+01  0.3347E+01
  -4.410  0.3893E+01  0.3386E+01
  -4.400  0.3809E+01  0.3425E+01
  -4.390  0.3773E+01  0.3462E+01
  -4.380  0.3772E+01  0.3500E+01
  -4.370  0.3785E+01  0.3538E+01
  -4.360  0.3790E+01  0.3576E+01
  -4.350  0.3793E+01  0.3614E+01
  -4.340  0.3844E+01  0.3652E+01
  -4.330  0.3902E+01  0.3691E+01
  -4.320  0.3941E+01  0.3730E+01
  -4.310  0.3971E+01  0.3769E+01
  -4.300  0.3990E+01  0.3809E+01
  -4.290  0.4017E+01  0.3849E+01
  -4.280  0.4032E+01  0.3889E+01
  -4.270  0.4051E+01  0.3930E+01
  -4.260  0.4123E+01  0.3971E+01
  -4.250  0.4226E+01  0.4012E+01
  -4.240  0.4242E+01  0.4055E+01
  -4.230  0.4181E+01  0.4097E+01
  -4.220  0.4160E+01  0.4139E+01
  -4.210  0.4198E+01  0.4180E+01
  -4.200  0.4234E+01  0.4223E+01
  -4.190  0.4269E+01  0.4265E+01
  -4.180  0.4287E+01  0.4308E+01
  -4.170  0.4294E+01  0.4351E+01
  -4.160  0.4295E+01  0.4394E+01
  -4.150  0.4307E+01  0.4437E+01
  -4.140  0.4313E+01  0.4480E+01
  -4.130  0.4310E+01  0.4523E+01
  -4.120  0.4372E+01  0.4566E+01
  -4.110  0.4332E+01  0.4610E+01
  -4.100  0.4356E+01  0.4653E+01
  -4.090  0.4379E+01  0.4697E+01
  -4.080  0.4402E+01  0.4741E+01
  -4.070  0.4435E+01  0.4785E+01
  -4.060  0.4453E+01  0.4829E+01
  -4.050  0.4668E+01  0.4874E+01
  -4.040  0.4638E+01  0.4921E+01
  -4.030  0.4616E+01  0.4967E+01
  -4.020  0.4736E+01  0.5014E+01
  -4.010  0.4813E+01  0.5062E+01
  -4.000  0.4868E+01  0.5110E+01
  -3.990  0.4862E+01  0.5159E+01
  -3.980  0.4893E+01  0.5208E+01
  -3.970  0.4941E+01  0.5257E+01
  -3.960  0.4969E+01  0.5306E+01
  -3.950  0.4988E+01  0.5356E+01
  -3.940  0.4995E+01  0.5406E+01
  -3.930  0.4975E+01  0.5456E+01
  -3.920  0.4978E+01  0.5506E+01
  -3.910  0.4998E+01  0.5556E+01
  -3.900  0.5015E+01  0.5606E+01
  -3.890  0.5047E+01  0.5656E+01
  -3.880  0.5056E+01  0.5707E+01
  -3.870  0.5050E+01  0.5757E+01
  -3.860  0.5036E+01  0.5808E+01
  -3.850  0.5026E+01  0.5858E+01
  -3.840  0.5057E+01  0.5908E+01
  -3.830  0.5116E+01  0.5959E+01
  -3.820  0.5374E+01  0.6012E+01
  -3.810  0.5397E+01  0.6066E+01
  -3.800  0.5375E+01  0.6120E+01
  -3.790  0.5372E+01  0.6173E+01
  -3.780  0.5382E+01  0.6227E+01
  -3.770  0.5340E+01  0.6281E+01
  -3.760  0.5328E+01  0.6334E+01
  -3.750  0.5346E+01  0.6387E+01
  -3.740  0.5365E+01  0.6441E+01
  -3.730  0.5421E+01  0.6495E+01
  -3.720  0.5478E+01  0.6549E+01
  -3.710  0.5519E+01  0.6604E+01
  -3.700  0.5558E+01  0.6660E+01
  -3.690  0.5595E+01  0.6715E+01
  -3.680  0.5671E+01  0.6772E+01
  -3.670  0.5684E+01  0.6829E+01
  -3.660  0.5783E+01  0.6886E+01
  -3.650  0.5904E+01  0.6944E+01
  -3.640  0.6028E+01  0.7004E+01
  -3.630  0.6114E+01  0.7065E+01
  -3.620  0.6112E+01  0.7126E+01
  -3.610  0.6232E+01  0.7188E+01
  -3.600  0.6560E+01  0.7251E+01
  -3.590  0.6463E+01  0.7317E+01
  -3.580  0.6597E+01  0.7383E+01
  -3.570  0.6962E+01  0.7450E+01
  -3.560  0.7310E+01  0.7522E+01
  -3.550  0.7278E+01  0.7595E+01
  -3.540  0.7204E+01  0.7667E+01
  -3.530  0.7319E+01  0.7740E+01
  -3.520  0.7625E+01  0.7815E+01
  -3.510  0.7888E+01  0.7892E+01
  -3.500  0.7526E+01  0.7969E+01
  -3.490  0.7411E+01  0.8043E+01
  -3.480  0.7317E+01  0.8117E+01
  -3.470  0.7250E+01  0.8190E+01
  -3.460  0.7191E+01  0.8262E+01
  -3.450  0.7153E+01  0.8334E+01
  -3.440  0.7106E+01  0.8405E+01
  -3.430  0.7086E+01  0.8476E+01
  -3.420  0.7083E+01  0.8547E+01
  -3.410  0.7116E+01  0.8618E+01
  -3.400  0.7104E+01  0.8689E+01
  -3.390  0.7071E+01  0.8760E+01
  -3.380  0.7050E+01  0.8830E+01
  -3.370  0.7034E+01  0.8901E+01
  -3.360  0.7365E+01  0.8973E+01
  -3.350  0.7263E+01  0.9046E+01
  -3.340  0.7113E+01  0.9118E+01
  -3.330  0.7081E+01  0.9189E+01
  -3.320  0.7114E+01  0.9260E+01
  -3.310  0.7168E+01  0.9331E+01
  -3.300  0.7186E+01  0.9403E+01
  -3.290  0.7227E+01  0.9475E+01
  -3.280  0.7313E+01  0.9547E+01
  -3.270  0.7371E+01  0.9621E+01
  -3.260  0.7367E+01  0.9695E+01
  -3.250  0.7333E+01  0.9769E+01
  -3.240  0.7067E+01  0.9841E+01
  -3.230  0.6699E+01  0.9910E+01
  -3.220  0.6126E+01  0.9974E+01
  -3.210  0.5803E+01  0.1003E+02
  -3.200  0.5603E+01  0.1009E+02
  -3.190  0.5441E+01  0.1015E+02
  -3.180  0.5317E+01  0.1020E+02
  -3.170  0.5170E+01  0.1025E+02
  -3.160  0.4990E+01  0.1030E+02
  -3.150  0.4970E+01  0.1035E+02
  -3.140  0.5055E+01  0.1040E+02
  -3.130  0.5193E+01  0.1045E+02
  -3.120  0.5401E+01  0.1051E+02
  -3.110  0.5712E+01  0.1056E+02
  -3.100  0.6008E+01  0.1062E+02
  -3.090  0.6120E+01  0.1068E+02
  -3.080  0.6176E+01  0.1074E+02
  -3.070  0.6177E+01  0.1081E+02
  -3.060  0.6202E+01  0.1087E+02
  -3.050  0.6190E+01  0.1093E+02
  -3.040  0.5974E+01  0.1099E+02
  -3.030  0.5849E+01  0.1105E+02
  -3.020  0.5875E+01  0.1111E+02
  -3.010  0.5863E+01  0.1117E+02
  -3.000  0.5857E+01  0.1123E+02
  -2.990  0.5873E+01  0.1128E+02
  -2.980  0.5880E+01  0.1134E+02
  -2.970  0.5877E+01  0.1140E+02
  -2.960  0.5866E+01  0.1146E+02
  -2.950  0.5921E+01  0.1152E+02
  -2.940  0.5812E+01  0.1158E+02
  -2.930  0.5712E+01  0.1164E+02
  -2.920  0.5734E+01  0.1169E+02
  -2.910  0.5774E+01  0.1175E+02
  -2.900  0.5791E+01  0.1181E+02
  -2.890  0.5794E+01  0.1187E+02
  -2.880  0.5784E+01  0.1192E+02
  -2.870  0.5771E+01  0.1198E+02
  -2.860  0.5698E+01  0.1204E+02
  -2.850  0.5606E+01  0.1210E+02
  -2.840  0.5510E+01  0.1215E+02
  -2.830  0.5453E+01  0.1221E+02
  -2.820  0.5369E+01  0.1226E+02
  -2.810  0.5291E+01  0.1231E+02
  -2.800  0.5215E+01  0.1237E+02
  -2.790  0.5178E+01  0.1242E+02
  -2.780  0.5174E+01  0.1247E+02
  -2.770  0.5146E+01  0.1252E+02
  -2.760  0.5083E+01  0.1257E+02
  -2.750  0.5067E+01  0.1262E+02
  -2.740  0.5275E+01  0.1267E+02
  -2.730  0.5166E+01  0.1273E+02
  -2.720  0.4872E+01  0.1278E+02
  -2.710  0.4611E+01  0.1282E+02
  -2.700  0.4416E+01  0.1287E+02
  -2.690  0.4305E+01  0.1291E+02
  -2.680  0.4246E+01  0.1296E+02
  -2.670  0.4089E+01  0.1300E+02
  -2.660  0.3910E+01  0.1304E+02
  -2.650  0.3839E+01  0.1308E+02
  -2.640  0.3874E+01  0.1312E+02
  -2.630  0.4001E+01  0.1315E+02
  -2.620  0.4194E+01  0.1320E+02
  -2.610  0.4363E+01  0.1324E+02
  -2.600  0.4562E+01  0.1328E+02
  -2.590  0.4819E+01  0.1333E+02
  -2.580  0.5038E+01  0.1338E+02
  -2.570  0.5199E+01  0.1343E+02
  -2.560  0.5289E+01  0.1348E+02
  -2.550  0.5327E+01  0.1354E+02
  -2.540  0.5313E+01  0.1359E+02
  -2.530  0.5363E+01  0.1364E+02
  -2.520  0.5157E+01  0.1369E+02
  -2.510  0.4963E+01  0.1375E+02
  -2.500  0.4834E+01  0.1379E+02
  -2.490  0.4726E+01  0.1384E+02
  -2.480  0.4628E+01  0.1389E+02
  -2.470  0.4537E+01  0.1393E+02
  -2.460  0.4451E+01  0.1398E+02
  -2.450  0.4370E+01  0.1402E+02
  -2.440  0.4294E+01  0.1407E+02
  -2.430  0.4225E+01  0.1411E+02
  -2.420  0.4165E+01  0.1415E+02
  -2.410  0.4114E+01  0.1419E+02
  -2.400  0.4083E+01  0.1423E+02
  -2.390  0.4046E+01  0.1427E+02
  -2.380  0.4010E+01  0.1432E+02
  -2.370  0.3973E+01  0.1435E+02
  -2.360  0.3935E+01  0.1439E+02
  -2.350  0.3901E+01  0.1443E+02
  -2.340  0.3872E+01  0.1447E+02
  -2.330  0.3844E+01  0.1451E+02
  -2.320  0.3820E+01  0.1455E+02
  -2.310  0.3784E+01  0.1459E+02
  -2.300  0.3749E+01  0.1463E+02
  -2.290  0.3717E+01  0.1466E+02
  -2.280  0.3683E+01  0.1470E+02
  -2.270  0.3645E+01  0.1474E+02
  -2.260  0.3606E+01  0.1477E+02
  -2.250  0.3564E+01  0.1481E+02
  -2.240  0.3523E+01  0.1484E+02
  -2.230  0.3484E+01  0.1488E+02
  -2.220  0.3448E+01  0.1491E+02
  -2.210  0.3443E+01  0.1495E+02
  -2.200  0.3426E+01  0.1498E+02
  -2.190  0.3366E+01  0.1502E+02
  -2.180  0.3329E+01  0.1505E+02
  -2.170  0.3294E+01  0.1508E+02
  -2.160  0.3256E+01  0.1512E+02
  -2.150  0.3230E+01  0.1515E+02
  -2.140  0.3200E+01  0.1518E+02
  -2.130  0.3144E+01  0.1521E+02
  -2.120  0.3113E+01  0.1524E+02
  -2.110  0.3087E+01  0.1527E+02
  -2.100  0.3061E+01  0.1530E+02
  -2.090  0.3032E+01  0.1534E+02
  -2.080  0.3001E+01  0.1537E+02
  -2.070  0.2966E+01  0.1540E+02
  -2.060  0.2930E+01  0.1542E+02
  -2.050  0.2902E+01  0.1545E+02
  -2.040  0.2868E+01  0.1548E+02
  -2.030  0.2839E+01  0.1551E+02
  -2.020  0.2803E+01  0.1554E+02
  -2.010  0.2758E+01  0.1557E+02
  -2.000  0.2708E+01  0.1559E+02
  -1.990  0.2663E+01  0.1562E+02
  -1.980  0.2619E+01  0.1565E+02
  -1.970  0.2571E+01  0.1567E+02
  -1.960  0.2495E+01  0.1570E+02
  -1.950  0.2397E+01  0.1572E+02
  -1.940  0.2309E+01  0.1575E+02
  -1.930  0.2229E+01  0.1577E+02
  -1.920  0.2141E+01  0.1579E+02
  -1.910  0.2045E+01  0.1581E+02
  -1.900  0.1942E+01  0.1583E+02
  -1.890  0.1841E+01  0.1585E+02
  -1.880  0.1737E+01  0.1587E+02
  -1.870  0.1633E+01  0.1589E+02
  -1.860  0.1554E+01  0.1590E+02
  -1.850  0.1509E+01  0.1592E+02
  -1.840  0.1391E+01  0.1593E+02
  -1.830  0.1103E+01  0.1594E+02
  -1.820  0.8777E+00  0.1595E+02
  -1.810  0.7241E+00  0.1596E+02
  -1.800  0.6071E+00  0.1597E+02
  -1.790  0.5113E+00  0.1597E+02
  -1.780  0.4288E+00  0.1598E+02
  -1.770  0.3581E+00  0.1598E+02
  -1.760  0.3009E+00  0.1599E+02
  -1.750  0.2581E+00  0.1599E+02
  -1.740  0.2252E+00  0.1599E+02
  -1.730  0.2031E+00  0.1599E+02
  -1.720  0.1914E+00  0.1600E+02
  -1.710  0.1867E+00  0.1600E+02
  -1.700  0.1890E+00  0.1600E+02
  -1.690  0.1989E+00  0.1600E+02
  -1.680  0.2210E+00  0.1600E+02
  -1.670  0.2479E+00  0.1601E+02
  -1.660  0.2797E+00  0.1601E+02
  -1.650  0.3167E+00  0.1601E+02
  -1.640  0.3589E+00  0.1602E+02
  -1.630  0.4133E+00  0.1602E+02
  -1.620  0.4760E+00  0.1602E+02
  -1.610  0.5444E+00  0.1603E+02
  -1.600  0.6144E+00  0.1603E+02
  -1.590  0.6852E+00  0.1604E+02
  -1.580  0.7569E+00  0.1605E+02
  -1.570  0.8393E+00  0.1606E+02
  -1.560  0.9227E+00  0.1606E+02
  -1.550  0.1006E+01  0.1607E+02
  -1.540  0.1091E+01  0.1609E+02
  -1.530  0.1172E+01  0.1610E+02
  -1.520  0.1248E+01  0.1611E+02
  -1.510  0.1334E+01  0.1612E+02
  -1.500  0.1427E+01  0.1614E+02
  -1.490  0.1512E+01  0.1615E+02
  -1.480  0.1593E+01  0.1617E+02
  -1.470  0.1664E+01  0.1618E+02
  -1.460  0.1725E+01  0.1620E+02
  -1.450  0.1781E+01  0.1622E+02
  -1.440  0.1957E+01  0.1624E+02
  -1.430  0.1975E+01  0.1626E+02
  -1.420  0.2035E+01  0.1628E+02
  -1.410  0.2128E+01  0.1630E+02
  -1.400  0.2192E+01  0.1632E+02
  -1.390  0.2224E+01  0.1634E+02
  -1.380  0.2266E+01  0.1636E+02
  -1.370  0.2313E+01  0.1638E+02
  -1.360  0.2360E+01  0.1641E+02
  -1.350  0.2415E+01  0.1643E+02
  -1.340  0.2472E+01  0.1646E+02
  -1.330  0.2522E+01  0.1648E+02
  -1.320  0.2559E+01  0.1651E+02
  -1.310  0.2598E+01  0.1653E+02
  -1.300  0.2641E+01  0.1656E+02
  -1.290  0.2690E+01  0.1659E+02
  -1.280  0.2727E+01  0.1661E+02
  -1.270  0.2776E+01  0.1664E+02
  -1.260  0.2819E+01  0.1667E+02
  -1.250  0.2856E+01  0.1670E+02
  -1.240  0.2902E+01  0.1673E+02
  -1.230  0.2956E+01  0.1675E+02
  -1.220  0.3013E+01  0.1678E+02
  -1.210  0.3069E+01  0.1681E+02
  -1.200  0.3128E+01  0.1685E+02
  -1.190  0.3194E+01  0.1688E+02
  -1.180  0.3231E+01  0.1691E+02
  -1.170  0.3310E+01  0.1694E+02
  -1.160  0.3301E+01  0.1698E+02
  -1.150  0.3357E+01  0.1701E+02
  -1.140  0.3411E+01  0.1704E+02
  -1.130  0.3466E+01  0.1708E+02
  -1.120  0.3521E+01  0.1711E+02
  -1.110  0.3575E+01  0.1715E+02
  -1.100  0.3629E+01  0.1718E+02
  -1.090  0.3687E+01  0.1722E+02
  -1.080  0.3748E+01  0.1726E+02
  -1.070  0.3814E+01  0.1730E+02
  -1.060  0.3882E+01  0.1733E+02
  -1.050  0.3948E+01  0.1737E+02
  -1.040  0.4013E+01  0.1741E+02
  -1.030  0.4062E+01  0.1745E+02
  -1.020  0.4123E+01  0.1749E+02
  -1.010  0.4202E+01  0.1754E+02
  -1.000  0.4280E+01  0.1758E+02
  -0.990  0.4360E+01  0.1762E+02
  -0.980  0.4433E+01  0.1767E+02
  -0.970  0.4526E+01  0.1771E+02
  -0.960  0.4625E+01  0.1776E+02
  -0.950  0.4730E+01  0.1780E+02
  -0.940  0.4842E+01  0.1785E+02
  -0.930  0.4961E+01  0.1790E+02
  -0.920  0.5125E+01  0.1795E+02
  -0.910  0.5312E+01  0.1800E+02
  -0.900  0.5534E+01  0.1806E+02
  -0.890  0.5797E+01  0.1811E+02
  -0.880  0.6335E+01  0.1817E+02
  -0.870  0.7237E+01  0.1824E+02
  -0.860  0.8392E+01  0.1832E+02
  -0.850  0.8471E+01  0.1840E+02
  -0.840  0.8484E+01  0.1849E+02
  -0.830  0.8162E+01  0.1857E+02
  -0.820  0.8082E+01  0.1865E+02
  -0.810  0.8314E+01  0.1873E+02
  -0.800  0.8979E+01  0.1882E+02
  -0.790  0.9411E+01  0.1891E+02
  -0.780  0.9844E+01  0.1901E+02
  -0.770  0.1046E+02  0.1911E+02
  -0.760  0.1137E+02  0.1922E+02
  -0.750  0.1255E+02  0.1934E+02
  -0.740  0.1419E+02  0.1947E+02
  -0.730  0.1678E+02  0.1963E+02
  -0.720  0.1576E+02  0.1979E+02
  -0.710  0.1472E+02  0.1995E+02
  -0.700  0.1323E+02  0.2009E+02
  -0.690  0.1205E+02  0.2021E+02
  -0.680  0.1143E+02  0.2033E+02
  -0.670  0.1085E+02  0.2044E+02
  -0.660  0.1052E+02  0.2055E+02
  -0.650  0.1027E+02  0.2065E+02
  -0.640  0.1015E+02  0.2075E+02
  -0.630  0.9968E+01  0.2085E+02
  -0.620  0.9546E+01  0.2095E+02
  -0.610  0.9103E+01  0.2104E+02
  -0.600  0.8834E+01  0.2113E+02
  -0.590  0.8521E+01  0.2122E+02
  -0.580  0.8380E+01  0.2131E+02
  -0.570  0.8155E+01  0.2139E+02
  -0.560  0.8007E+01  0.2147E+02
  -0.550  0.8096E+01  0.2155E+02
  -0.540  0.8088E+01  0.2163E+02
  -0.530  0.8095E+01  0.2171E+02
  -0.520  0.8105E+01  0.2179E+02
  -0.510  0.8099E+01  0.2187E+02
  -0.500  0.7715E+01  0.2195E+02
  -0.490  0.7553E+01  0.2203E+02
  -0.480  0.7077E+01  0.2210E+02
  -0.470  0.6564E+01  0.2217E+02
  -0.460  0.6212E+01  0.2223E+02
  -0.450  0.5890E+01  0.2229E+02
  -0.440  0.5691E+01  0.2235E+02
  -0.430  0.5547E+01  0.2241E+02
  -0.420  0.5442E+01  0.2246E+02
  -0.410  0.5395E+01  0.2252E+02
  -0.400  0.5419E+01  0.2257E+02
  -0.390  0.5484E+01  0.2263E+02
  -0.380  0.5388E+01  0.2268E+02
  -0.370  0.5423E+01  0.2273E+02
  -0.360  0.5518E+01  0.2279E+02
  -0.350  0.5698E+01  0.2284E+02
  -0.340  0.5857E+01  0.2290E+02
  -0.330  0.5980E+01  0.2296E+02
  -0.320  0.5999E+01  0.2302E+02
  -0.310  0.6044E+01  0.2308E+02
  -0.300  0.6081E+01  0.2314E+02
  -0.290  0.6109E+01  0.2320E+02
  -0.280  0.6133E+01  0.2326E+02
  -0.270  0.6163E+01  0.2333E+02
  -0.260  0.6119E+01  0.2339E+02
  -0.250  0.6074E+01  0.2345E+02
  -0.240  0.6045E+01  0.2351E+02
  -0.230  0.5984E+01  0.2357E+02
  -0.220  0.5910E+01  0.2363E+02
  -0.210  0.6034E+01  0.2369E+02
  -0.200  0.5793E+01  0.2375E+02
  -0.190  0.5546E+01  0.2380E+02
  -0.180  0.5439E+01  0.2386E+02
  -0.170  0.5345E+01  0.2391E+02
  -0.160  0.5258E+01  0.2397E+02
  -0.150  0.5176E+01  0.2402E+02
  -0.140  0.5108E+01  0.2407E+02
  -0.130  0.5051E+01  0.2412E+02
  -0.120  0.4994E+01  0.2417E+02
  -0.110  0.4936E+01  0.2422E+02
  -0.100  0.4881E+01  0.2427E+02
  -0.090  0.4831E+01  0.2432E+02
  -0.080  0.4799E+01  0.2437E+02
  -0.070  0.4785E+01  0.2441E+02
  -0.060  0.4768E+01  0.2446E+02
  -0.050  0.4712E+01  0.2451E+02
  -0.040  0.4625E+01  0.2456E+02
  -0.030  0.4561E+01  0.2460E+02
  -0.020  0.4524E+01  0.2465E+02
  -0.010  0.4505E+01  0.2469E+02
   0.000  0.4441E+01  0.2474E+02
   0.010  0.4407E+01  0.2478E+02
   0.020  0.4374E+01  0.2482E+02
   0.030  0.4343E+01  0.2487E+02
   0.040  0.4314E+01  0.2491E+02
   0.050  0.4292E+01  0.2495E+02
   0.060  0.4267E+01  0.2500E+02
   0.070  0.4232E+01  0.2504E+02
   0.080  0.4196E+01  0.2508E+02
   0.090  0.4173E+01  0.2512E+02
   0.100  0.4156E+01  0.2517E+02
   0.110  0.4140E+01  0.2521E+02
   0.120  0.4124E+01  0.2525E+02
   0.130  0.4119E+01  0.2529E+02
   0.140  0.4097E+01  0.2533E+02
   0.150  0.4078E+01  0.2537E+02
   0.160  0.4059E+01  0.2541E+02
   0.170  0.4030E+01  0.2545E+02
   0.180  0.3997E+01  0.2549E+02
   0.190  0.3963E+01  0.2553E+02
   0.200  0.3928E+01  0.2557E+02
   0.210  0.3892E+01  0.2561E+02
   0.220  0.3859E+01  0.2565E+02
   0.230  0.3861E+01  0.2569E+02
   0.240  0.3812E+01  0.2573E+02
   0.250  0.3810E+01  0.2577E+02
   0.260  0.3713E+01  0.2580E+02
   0.270  0.3674E+01  0.2584E+02
   0.280  0.3636E+01  0.2588E+02
   0.290  0.3601E+01  0.2591E+02
   0.300  0.3564E+01  0.2595E+02
   0.310  0.3532E+01  0.2598E+02
   0.320  0.3502E+01  0.2602E+02
   0.330  0.3473E+01  0.2605E+02
   0.340  0.3447E+01  0.2609E+02
   0.350  0.3435E+01  0.2612E+02
   0.360  0.3423E+01  0.2616E+02
   0.370  0.3411E+01  0.2619E+02
   0.380  0.3400E+01  0.2623E+02
   0.390  0.3392E+01  0.2626E+02
   0.400  0.3383E+01  0.2629E+02
   0.410  0.3374E+01  0.2633E+02
   0.420  0.3365E+01  0.2636E+02
   0.430  0.3356E+01  0.2639E+02
   0.440  0.3339E+01  0.2643E+02
   0.450  0.3319E+01  0.2646E+02
   0.460  0.3297E+01  0.2649E+02
   0.470  0.3277E+01  0.2653E+02
   0.480  0.3260E+01  0.2656E+02
   0.490  0.3242E+01  0.2659E+02
   0.500  0.3226E+01  0.2662E+02
   0.510  0.3240E+01  0.2666E+02
   0.520  0.3272E+01  0.2669E+02
   0.530  0.3189E+01  0.2672E+02
   0.540  0.3161E+01  0.2675E+02
   0.550  0.3147E+01  0.2678E+02
   0.560  0.3132E+01  0.2682E+02
   0.570  0.3117E+01  0.2685E+02
   0.580  0.3098E+01  0.2688E+02
   0.590  0.3074E+01  0.2691E+02
   0.600  0.3050E+01  0.2694E+02
   0.610  0.3028E+01  0.2697E+02
   0.620  0.3026E+01  0.2700E+02
   0.630  0.3024E+01  0.2703E+02
   0.640  0.3022E+01  0.2706E+02
   0.650  0.3018E+01  0.2709E+02
   0.660  0.3013E+01  0.2712E+02
   0.670  0.3004E+01  0.2715E+02
   0.680  0.2994E+01  0.2718E+02
   0.690  0.2981E+01  0.2721E+02
   0.700  0.2965E+01  0.2724E+02
   0.710  0.2947E+01  0.2727E+02
   0.720  0.2928E+01  0.2730E+02
   0.730  0.2913E+01  0.2733E+02
   0.740  0.2897E+01  0.2736E+02
   0.750  0.2879E+01  0.2739E+02
   0.760  0.2857E+01  0.2742E+02
   0.770  0.2832E+01  0.2744E+02
   0.780  0.2806E+01  0.2747E+02
   0.790  0.2814E+01  0.2750E+02
   0.800  0.2764E+01  0.2753E+02
   0.810  0.2753E+01  0.2756E+02
   0.820  0.2714E+01  0.2758E+02
   0.830  0.2676E+01  0.2761E+02
   0.840  0.2658E+01  0.2764E+02
   0.850  0.2637E+01  0.2766E+02
   0.860  0.2618E+01  0.2769E+02
   0.870  0.2599E+01  0.2772E+02
   0.880  0.2581E+01  0.2774E+02
   0.890  0.2564E+01  0.2777E+02
   0.900  0.2551E+01  0.2779E+02
   0.910  0.2540E+01  0.2782E+02
   0.920  0.2533E+01  0.2784E+02
   0.930  0.2526E+01  0.2787E+02
   0.940  0.2519E+01  0.2789E+02
   0.950  0.2512E+01  0.2792E+02
   0.960  0.2504E+01  0.2794E+02
   0.970  0.2498E+01  0.2797E+02
   0.980  0.2493E+01  0.2799E+02
   0.990  0.2488E+01  0.2802E+02
   1.000  0.2482E+01  0.2804E+02
   1.010  0.2476E+01  0.2807E+02
   1.020  0.2468E+01  0.2809E+02
   1.030  0.2459E+01  0.2812E+02
   1.040  0.2449E+01  0.2814E+02
   1.050  0.2437E+01  0.2817E+02
   1.060  0.2434E+01  0.2819E+02
   1.070  0.2439E+01  0.2822E+02
   1.080  0.2410E+01  0.2824E+02
   1.090  0.2383E+01  0.2826E+02
   1.100  0.2359E+01  0.2829E+02
   1.110  0.2365E+01  0.2831E+02
   1.120  0.2352E+01  0.2834E+02
   1.130  0.2315E+01  0.2836E+02
   1.140  0.2294E+01  0.2838E+02
   1.150  0.2279E+01  0.2840E+02
   1.160  0.2264E+01  0.2843E+02
   1.170  0.2249E+01  0.2845E+02
   1.180  0.2235E+01  0.2847E+02
   1.190  0.2221E+01  0.2849E+02
   1.200  0.2213E+01  0.2852E+02
   1.210  0.2206E+01  0.2854E+02
   1.220  0.2197E+01  0.2856E+02
   1.230  0.2184E+01  0.2858E+02
   1.240  0.2173E+01  0.2860E+02
   1.250  0.2163E+01  0.2863E+02
   1.260  0.2152E+01  0.2865E+02
   1.270  0.2141E+01  0.2867E+02
   1.280  0.2129E+01  0.2869E+02
   1.290  0.2117E+01  0.2871E+02
   1.300  0.2104E+01  0.2873E+02
   1.310  0.2106E+01  0.2875E+02
   1.320  0.2117E+01  0.2878E+02
   1.330  0.2110E+01  0.2880E+02
   1.340  0.2085E+01  0.2882E+02
   1.350  0.2044E+01  0.2884E+02
   1.360  0.2008E+01  0.2886E+02
   1.370  0.1977E+01  0.2888E+02
   1.380  0.1947E+01  0.2890E+02
   1.390  0.1923E+01  0.2892E+02
   1.400  0.1905E+01  0.2894E+02
   1.410  0.1893E+01  0.2896E+02
   1.420  0.1956E+01  0.2897E+02
   1.430  0.1947E+01  0.2899E+02
   1.440  0.1944E+01  0.2901E+02
   1.450  0.1935E+01  0.2903E+02
   1.460  0.1916E+01  0.2905E+02
   1.470  0.1906E+01  0.2907E+02
   1.480  0.1901E+01  0.2909E+02
   1.490  0.1900E+01  0.2911E+02
   1.500  0.1901E+01  0.2913E+02
   1.510  0.1903E+01  0.2915E+02
   1.520  0.1906E+01  0.2917E+02
   1.530  0.1908E+01  0.2919E+02
   1.540  0.1916E+01  0.2920E+02
   1.550  0.1928E+01  0.2922E+02
   1.560  0.1945E+01  0.2924E+02
   1.570  0.1965E+01  0.2926E+02
   1.580  0.1990E+01  0.2928E+02
   1.590  0.2019E+01  0.2930E+02
   1.600  0.2052E+01  0.2932E+02
   1.610  0.2265E+01  0.2934E+02
   1.620  0.2084E+01  0.2937E+02
   1.630  0.2122E+01  0.2939E+02
   1.640  0.2166E+01  0.2941E+02
   1.650  0.2215E+01  0.2943E+02
   1.660  0.2270E+01  0.2945E+02
   1.670  0.2371E+01  0.2948E+02
   1.680  0.2618E+01  0.2950E+02
   1.690  0.3080E+01  0.2953E+02
   1.700  0.3558E+01  0.2956E+02
   1.710  0.3815E+01  0.2960E+02
   1.720  0.4071E+01  0.2964E+02
   1.730  0.4305E+01  0.2968E+02
   1.740  0.4537E+01  0.2972E+02
   1.750  0.5061E+01  0.2977E+02
   1.760  0.5289E+01  0.2982E+02
   1.770  0.5552E+01  0.2988E+02
   1.780  0.5688E+01  0.2994E+02
   1.790  0.5867E+01  0.2999E+02
   1.800  0.6030E+01  0.3005E+02
   1.810  0.6084E+01  0.3011E+02
   1.820  0.6070E+01  0.3017E+02
   1.830  0.6169E+01  0.3024E+02
   1.840  0.6260E+01  0.3030E+02
   1.850  0.6293E+01  0.3036E+02
   1.860  0.6297E+01  0.3042E+02
   1.870  0.6416E+01  0.3049E+02
   1.880  0.6666E+01  0.3055E+02
   1.890  0.7102E+01  0.3062E+02
   1.900  0.7524E+01  0.3069E+02
   1.910  0.8153E+01  0.3077E+02
   1.920  0.8737E+01  0.3086E+02
   1.930  0.8695E+01  0.3094E+02
   1.940  0.8972E+01  0.3103E+02
   1.950  0.8963E+01  0.3112E+02
   1.960  0.9171E+01  0.3121E+02
   1.970  0.9588E+01  0.3131E+02
   1.980  0.9722E+01  0.3140E+02
   1.990  0.9758E+01  0.3150E+02
   2.000  0.9781E+01  0.3160E+02
   2.010  0.9755E+01  0.3170E+02
   2.020  0.9710E+01  0.3179E+02
   2.030  0.9745E+01  0.3189E+02
   2.040  0.9775E+01  0.3199E+02
   2.050  0.9845E+01  0.3209E+02
   2.060  0.9790E+01  0.3219E+02
   2.070  0.9771E+01  0.3228E+02
   2.080  0.9850E+01  0.3238E+02
   2.090  0.9537E+01  0.3248E+02
   2.100  0.9486E+01  0.3257E+02
   2.110  0.9373E+01  0.3267E+02
   2.120  0.9317E+01  0.3276E+02
   2.130  0.9304E+01  0.3285E+02
   2.140  0.9522E+01  0.3295E+02
   2.150  0.9267E+01  0.3304E+02
   2.160  0.9099E+01  0.3313E+02
   2.170  0.8989E+01  0.3322E+02
   2.180  0.8891E+01  0.3331E+02
   2.190  0.8820E+01  0.3340E+02
   2.200  0.8746E+01  0.3349E+02
   2.210  0.8679E+01  0.3358E+02
   2.220  0.8659E+01  0.3366E+02
   2.230  0.8723E+01  0.3375E+02
   2.240  0.8632E+01  0.3384E+02
   2.250  0.8531E+01  0.3392E+02
   2.260  0.8516E+01  0.3401E+02
   2.270  0.8516E+01  0.3409E+02
   2.280  0.8464E+01  0.3418E+02
   2.290  0.8443E+01  0.3426E+02
   2.300  0.8424E+01  0.3435E+02
   2.310  0.8415E+01  0.3443E+02
   2.320  0.8432E+01  0.3452E+02
   2.330  0.8537E+01  0.3460E+02
   2.340  0.8590E+01  0.3469E+02
   2.350  0.8614E+01  0.3477E+02
   2.360  0.8645E+01  0.3486E+02
   2.370  0.8651E+01  0.3495E+02
   2.380  0.8662E+01  0.3503E+02
   2.390  0.8705E+01  0.3512E+02
   2.400  0.8818E+01  0.3521E+02
   2.410  0.8707E+01  0.3529E+02
   2.420  0.8594E+01  0.3538E+02
   2.430  0.8469E+01  0.3547E+02
   2.440  0.8386E+01  0.3555E+02
   2.450  0.8337E+01  0.3563E+02
   2.460  0.8301E+01  0.3572E+02
   2.470  0.8279E+01  0.3580E+02
   2.480  0.8272E+01  0.3588E+02
   2.490  0.8300E+01  0.3597E+02
   2.500  0.8352E+01  0.3605E+02
   2.510  0.8378E+01  0.3613E+02
   2.520  0.8421E+01  0.3622E+02
   2.530  0.8471E+01  0.3630E+02
   2.540  0.8515E+01  0.3639E+02
   2.550  0.8561E+01  0.3647E+02
   2.560  0.8535E+01  0.3656E+02
   2.570  0.8527E+01  0.3664E+02
   2.580  0.8576E+01  0.3673E+02
   2.590  0.8673E+01  0.3681E+02
   2.600  0.8734E+01  0.3690E+02
   2.610  0.8737E+01  0.3699E+02
   2.620  0.8749E+01  0.3708E+02
   2.630  0.8712E+01  0.3716E+02
   2.640  0.8642E+01  0.3725E+02
   2.650  0.8533E+01  0.3734E+02
   2.660  0.8485E+01  0.3742E+02
   2.670  0.8449E+01  0.3751E+02
   2.680  0.8428E+01  0.3759E+02
   2.690  0.8449E+01  0.3768E+02
   2.700  0.8513E+01  0.3776E+02
   2.710  0.8571E+01  0.3785E+02
   2.720  0.8650E+01  0.3793E+02
   2.730  0.8707E+01  0.3802E+02
   2.740  0.8737E+01  0.3811E+02
   2.750  0.8783E+01  0.3819E+02
   2.760  0.8847E+01  0.3828E+02
   2.770  0.8926E+01  0.3837E+02
   2.780  0.9138E+01  0.3846E+02
   2.790  0.9220E+01  0.3855E+02
   2.800  0.9409E+01  0.3865E+02
   2.810  0.9315E+01  0.3874E+02
   2.820  0.9304E+01  0.3883E+02
   2.830  0.9350E+01  0.3893E+02
   2.840  0.9314E+01  0.3902E+02
   2.850  0.9352E+01  0.3911E+02
   2.860  0.9388E+01  0.3921E+02
   2.870  0.9490E+01  0.3930E+02
   2.880  0.9632E+01  0.3940E+02
   2.890  0.9800E+01  0.3949E+02
   2.900  0.9931E+01  0.3959E+02
   2.910  0.1006E+02  0.3969E+02
   2.920  0.1015E+02  0.3979E+02
   2.930  0.1022E+02  0.3989E+02
   2.940  0.1025E+02  0.4000E+02
   2.950  0.1016E+02  0.4010E+02
   2.960  0.1007E+02  0.4020E+02
   2.970  0.9966E+01  0.4030E+02
   2.980  0.9953E+01  0.4040E+02
   2.990  0.9927E+01  0.4050E+02
   3.000  0.9891E+01  0.4060E+02
   3.010  0.9781E+01  0.4070E+02
   3.020  0.9671E+01  0.4079E+02
   3.030  0.9778E+01  0.4089E+02
   3.040  0.9886E+01  0.4099E+02
   3.050  0.9732E+01  0.4109E+02
   3.060  0.9640E+01  0.4118E+02
   3.070  0.9640E+01  0.4128E+02
   3.080  0.9813E+01  0.4138E+02
   3.090  0.1027E+02  0.4148E+02
   3.100  0.1080E+02  0.4158E+02
   3.110  0.1085E+02  0.4169E+02
   3.120  0.1077E+02  0.4180E+02
   3.130  0.1080E+02  0.4191E+02
   3.140  0.1112E+02  0.4202E+02
   3.150  0.1113E+02  0.4213E+02
   3.160  0.1155E+02  0.4224E+02
   3.170  0.1191E+02  0.4236E+02
   3.180  0.1251E+02  0.4248E+02
   3.190  0.1292E+02  0.4261E+02
   3.200  0.1306E+02  0.4274E+02
   3.210  0.1303E+02  0.4287E+02
   3.220  0.1343E+02  0.4301E+02
   3.230  0.1331E+02  0.4314E+02
   3.240  0.1336E+02  0.4327E+02
   3.250  0.1328E+02  0.4341E+02
   3.260  0.1360E+02  0.4354E+02
   3.270  0.1397E+02  0.4368E+02
   3.280  0.1388E+02  0.4382E+02
   3.290  0.1373E+02  0.4396E+02
   3.300  0.1342E+02  0.4409E+02
   3.310  0.1314E+02  0.4422E+02
   3.320  0.1272E+02  0.4435E+02
   3.330  0.1236E+02  0.4448E+02
   3.340  0.1205E+02  0.4460E+02
   3.350  0.1107E+02  0.4472E+02
   3.360  0.9951E+01  0.4482E+02
   3.370  0.9508E+01  0.4492E+02
   3.380  0.9516E+01  0.4501E+02
   3.390  0.9868E+01  0.4511E+02
   3.400  0.1025E+02  0.4521E+02
   3.410  0.1072E+02  0.4531E+02
   3.420  0.1115E+02  0.4542E+02
   3.430  0.1137E+02  0.4554E+02
   3.440  0.1167E+02  0.4565E+02
   3.450  0.1154E+02  0.4577E+02
   3.460  0.1116E+02  0.4588E+02
   3.470  0.1101E+02  0.4599E+02
   3.480  0.1079E+02  0.4610E+02
   3.490  0.1084E+02  0.4621E+02
   3.500  0.1093E+02  0.4632E+02
   3.510  0.1080E+02  0.4643E+02
   3.520  0.1074E+02  0.4654E+02
   3.530  0.1068E+02  0.4664E+02
   3.540  0.1101E+02  0.4675E+02
   3.550  0.1114E+02  0.4686E+02
   3.560  0.1137E+02  0.4697E+02
   3.570  0.1102E+02  0.4708E+02
   3.580  0.1107E+02  0.4719E+02
   3.590  0.1116E+02  0.4731E+02
   3.600  0.1131E+02  0.4742E+02
   3.610  0.1137E+02  0.4753E+02
   3.620  0.1141E+02  0.4765E+02
   3.630  0.1141E+02  0.4776E+02
   3.640  0.1142E+02  0.4787E+02
   3.650  0.1162E+02  0.4799E+02
   3.660  0.1178E+02  0.4811E+02
   3.670  0.1220E+02  0.4823E+02
   3.680  0.1277E+02  0.4835E+02
   3.690  0.1388E+02  0.4848E+02
   3.700  0.1350E+02  0.4862E+02
   3.710  0.1266E+02  0.4875E+02
   3.720  0.1194E+02  0.4888E+02
   3.730  0.1144E+02  0.4899E+02
   3.740  0.1122E+02  0.4911E+02
   3.750  0.1100E+02  0.4922E+02
   3.760  0.1078E+02  0.4933E+02
   3.770  0.1060E+02  0.4943E+02
   3.780  0.1049E+02  0.4954E+02
   3.790  0.1045E+02  0.4964E+02
   3.800  0.1058E+02  0.4975E+02
   3.810  0.1083E+02  0.4986E+02
   3.820  0.1130E+02  0.4997E+02
   3.830  0.1181E+02  0.5008E+02
   3.840  0.1230E+02  0.5020E+02
   3.850  0.1273E+02  0.5033E+02
   3.860  0.1299E+02  0.5046E+02
   3.870  0.1262E+02  0.5058E+02
   3.880  0.1211E+02  0.5071E+02
   3.890  0.1173E+02  0.5083E+02
   3.900  0.1140E+02  0.5094E+02
   3.910  0.1116E+02  0.5106E+02
   3.920  0.1095E+02  0.5117E+02
   3.930  0.1085E+02  0.5128E+02
   3.940  0.1078E+02  0.5138E+02
   3.950  0.1067E+02  0.5149E+02
   3.960  0.1080E+02  0.5160E+02
   3.970  0.1092E+02  0.5171E+02
   3.980  0.1092E+02  0.5182E+02
   3.990  0.1088E+02  0.5192E+02
   4.000  0.1077E+02  0.5203E+02
   4.010  0.1062E+02  0.5214E+02
   4.020  0.1046E+02  0.5225E+02
   4.030  0.1035E+02  0.5235E+02
   4.040  0.1029E+02  0.5245E+02
   4.050  0.1024E+02  0.5256E+02
   4.060  0.1021E+02  0.5266E+02
   4.070  0.1021E+02  0.5276E+02
   4.080  0.1017E+02  0.5286E+02
   4.090  0.1030E+02  0.5296E+02
   4.100  0.1030E+02  0.5307E+02
   4.110  0.1036E+02  0.5317E+02
   4.120  0.1031E+02  0.5327E+02
   4.130  0.1029E+02  0.5338E+02
   4.140  0.1021E+02  0.5348E+02
   4.150  0.1014E+02  0.5358E+02
   4.160  0.1010E+02  0.5368E+02
   4.170  0.1013E+02  0.5378E+02
   4.180  0.1012E+02  0.5388E+02
   4.190  0.1013E+02  0.5399E+02
   4.200  0.1041E+02  0.5409E+02
   4.210  0.1031E+02  0.5419E+02
   4.220  0.1026E+02  0.5429E+02
   4.230  0.1029E+02  0.5440E+02
   4.240  0.1011E+02  0.5450E+02
   4.250  0.1011E+02  0.5460E+02
   4.260  0.1015E+02  0.5470E+02
   4.270  0.1026E+02  0.5480E+02
   4.280  0.1026E+02  0.5491E+02
   4.290  0.1027E+02  0.5501E+02
   4.300  0.1026E+02  0.5511E+02
   4.310  0.1019E+02  0.5521E+02
   4.320  0.1014E+02  0.5532E+02
   4.330  0.1010E+02  0.5542E+02
   4.340  0.1015E+02  0.5552E+02
   4.350  0.1013E+02  0.5562E+02
   4.360  0.1021E+02  0.5572E+02
   4.370  0.1010E+02  0.5582E+02
   4.380  0.1003E+02  0.5592E+02
   4.390  0.9977E+01  0.5602E+02
   4.400  0.9951E+01  0.5612E+02
   4.410  0.9925E+01  0.5622E+02
   4.420  0.9891E+01  0.5632E+02
   4.430  0.9938E+01  0.5642E+02
   4.440  0.1000E+02  0.5652E+02
   4.450  0.9936E+01  0.5662E+02
   4.460  0.9967E+01  0.5672E+02
   4.470  0.9982E+01  0.5682E+02
   4.480  0.9975E+01  0.5692E+02
   4.490  0.9982E+01  0.5702E+02
   4.500  0.1037E+02  0.5712E+02
   4.510  0.9981E+01  0.5722E+02
   4.520  0.9859E+01  0.5732E+02
   4.530  0.9786E+01  0.5742E+02
   4.540  0.9773E+01  0.5752E+02
   4.550  0.9754E+01  0.5761E+02
   4.560  0.9652E+01  0.5771E+02
   4.570  0.9635E+01  0.5781E+02
   4.580  0.9562E+01  0.5790E+02
   4.590  0.9530E+01  0.5800E+02
   4.600  0.9487E+01  0.5809E+02
   4.610  0.9464E+01  0.5819E+02
   4.620  0.9450E+01  0.5828E+02
   4.630  0.9538E+01  0.5838E+02
   4.640  0.9577E+01  0.5847E+02
   4.650  0.9629E+01  0.5857E+02
   4.660  0.9623E+01  0.5867E+02
   4.670  0.9597E+01  0.5876E+02
   4.680  0.9567E+01  0.5886E+02
   4.690  0.9645E+01  0.5895E+02
   4.700  0.9281E+01  0.5905E+02
   4.710  0.9039E+01  0.5914E+02
   4.720  0.8883E+01  0.5923E+02
   4.730  0.8773E+01  0.5932E+02
   4.740  0.8813E+01  0.5941E+02
   4.750  0.8734E+01  0.5949E+02
   4.760  0.8747E+01  0.5958E+02
   4.770  0.8550E+01  0.5967E+02
   4.780  0.8613E+01  0.5975E+02
   4.790  0.8632E+01  0.5984E+02
   4.800  0.8890E+01  0.5993E+02
   4.810  0.8480E+01  0.6002E+02
   4.820  0.8134E+01  0.6010E+02
   4.830  0.7587E+01  0.6018E+02
   4.840  0.7313E+01  0.6025E+02
   4.850  0.7159E+01  0.6032E+02
   4.860  0.7103E+01  0.6040E+02
   4.870  0.7109E+01  0.6047E+02
   4.880  0.7200E+01  0.6054E+02
   4.890  0.7139E+01  0.6061E+02
   4.900  0.6976E+01  0.6068E+02
   4.910  0.6908E+01  0.6075E+02
   4.920  0.6734E+01  0.6082E+02
   4.930  0.6537E+01  0.6088E+02
   4.940  0.6365E+01  0.6095E+02
   4.950  0.6223E+01  0.6101E+02
   4.960  0.6097E+01  0.6107E+02
   4.970  0.5999E+01  0.6113E+02
   4.980  0.5916E+01  0.6119E+02
   4.990  0.5822E+01  0.6125E+02
   5.000  0.5629E+01  0.6131E+02
   5.010  0.5459E+01  0.6137E+02
   5.020  0.5344E+01  0.6142E+02
   5.030  0.5236E+01  0.6147E+02
   5.040  0.5144E+01  0.6152E+02
   5.050  0.5072E+01  0.6158E+02
   5.060  0.5051E+01  0.6163E+02
   5.070  0.5128E+01  0.6168E+02
   5.080  0.5108E+01  0.6173E+02
   5.090  0.4879E+01  0.6178E+02
   5.100  0.4628E+01  0.6183E+02
   5.110  0.4529E+01  0.6187E+02
   5.120  0.4428E+01  0.6192E+02
   5.130  0.4312E+01  0.6196E+02
   5.140  0.4257E+01  0.6200E+02
   5.150  0.4219E+01  0.6204E+02
   5.160  0.4181E+01  0.6209E+02
   5.170  0.4143E+01  0.6213E+02
   5.180  0.4173E+01  0.6217E+02
   5.190  0.4206E+01  0.6221E+02
   5.200  0.4021E+01  0.6225E+02
   5.210  0.3933E+01  0.6229E+02
   5.220  0.3811E+01  0.6233E+02
   5.230  0.3718E+01  0.6237E+02
   5.240  0.3666E+01  0.6241E+02
   5.250  0.3620E+01  0.6244E+02
   5.260  0.3576E+01  0.6248E+02
   5.270  0.3548E+01  0.6251E+02
   5.280  0.3540E+01  0.6255E+02
   5.290  0.3547E+01  0.6259E+02
   5.300  0.3870E+01  0.6262E+02
   5.310  0.3897E+01  0.6266E+02
   5.320  0.3737E+01  0.6270E+02
   5.330  0.3696E+01  0.6274E+02
   5.340  0.3661E+01  0.6278E+02
   5.350  0.3612E+01  0.6281E+02
   5.360  0.3572E+01  0.6285E+02
   5.370  0.3527E+01  0.6288E+02
   5.380  0.3478E+01  0.6292E+02
   5.390  0.3427E+01  0.6295E+02
   5.400  0.3381E+01  0.6299E+02
   5.410  0.3332E+01  0.6302E+02
   5.420  0.3263E+01  0.6305E+02
   5.430  0.3037E+01  0.6309E+02
   5.440  0.2884E+01  0.6311E+02
   5.450  0.2831E+01  0.6314E+02
   5.460  0.2800E+01  0.6317E+02
   5.470  0.2745E+01  0.6320E+02
   5.480  0.2687E+01  0.6323E+02
   5.490  0.2641E+01  0.6325E+02
   5.500  0.2596E+01  0.6328E+02
   5.510  0.2555E+01  0.6330E+02
   5.520  0.2530E+01  0.6333E+02
   5.530  0.2507E+01  0.6336E+02
   5.540  0.2499E+01  0.6338E+02
   5.550  0.2402E+01  0.6341E+02
   5.560  0.2314E+01  0.6343E+02
   5.570  0.2275E+01  0.6345E+02
   5.580  0.2231E+01  0.6347E+02
   5.590  0.2219E+01  0.6350E+02
   5.600  0.2153E+01  0.6352E+02
   5.610  0.2116E+01  0.6354E+02
   5.620  0.2088E+01  0.6356E+02
   5.630  0.2065E+01  0.6358E+02
   5.640  0.2041E+01  0.6360E+02
   5.650  0.2019E+01  0.6362E+02
   5.660  0.1961E+01  0.6364E+02
   5.670  0.1860E+01  0.6366E+02
   5.680  0.1796E+01  0.6368E+02
   5.690  0.1741E+01  0.6370E+02
   5.700  0.1693E+01  0.6372E+02
   5.710  0.1654E+01  0.6373E+02
   5.720  0.1620E+01  0.6375E+02
   5.730  0.1588E+01  0.6377E+02
   5.740  0.1561E+01  0.6378E+02
   5.750  0.1626E+01  0.6380E+02
   5.760  0.1498E+01  0.6381E+02
   5.770  0.1395E+01  0.6383E+02
   5.780  0.1324E+01  0.6384E+02
   5.790  0.1266E+01  0.6385E+02
   5.800  0.1213E+01  0.6387E+02
   5.810  0.1181E+01  0.6388E+02
   5.820  0.1185E+01  0.6389E+02
   5.830  0.1290E+01  0.6390E+02
   5.840  0.1221E+01  0.6392E+02
   5.850  0.1086E+01  0.6393E+02
   5.860  0.9444E+00  0.6394E+02
   5.870  0.8573E+00  0.6395E+02
   5.880  0.8428E+00  0.6395E+02
   5.890  0.8489E+00  0.6396E+02
   5.900  0.7784E+00  0.6397E+02
   5.910  0.6650E+00  0.6398E+02
   5.920  0.5474E+00  0.6398E+02
   5.930  0.4274E+00  0.6399E+02
   5.940  0.3413E+00  0.6399E+02
   5.950  0.2550E+00  0.6400E+02
   5.960  0.2134E+00  0.6400E+02
   5.970  0.5283E-01  0.6400E+02
   5.980  0.3516E-03  0.6400E+02
   5.990  0.0000E+00  0.6400E+02
   6.000  0.0000E+00  0.6400E+02
   6.010  0.0000E+00  0.6400E+02
   6.020  0.0000E+00  0.6400E+02
   6.030  0.0000E+00  0.6400E+02
   6.040  0.0000E+00  0.6400E+02
   6.050  0.0000E+00  0.6400E+02
   6.060  0.0000E+00  0.6400E+02
   6.070  0.0000E+00  0.6400E+02
   6.080  0.0000E+00  0.6400E+02
   6.090  0.0000E+00  0.6400E+02
   6.100  0.0000E+00  0.6400E+02
   6.110  0.0000E+00  0.6400E+02
   6.120  0.0000E+00  0.6400E+02
   6.130  0.0000E+00  0.6400E+02
   6.140  0.0000E+00  0.6400E+02
   6.150  0.0000E+00  0.6400E+02
   6.160  0.0000E+00  0.6400E+02
   6.170  0.0000E+00  0.6400E+02
   6.180  0.0000E+00  0.6400E+02
   6.190  0.0000E+00  0.6400E+02
   6.200  0.0000E+00  0.6400E+02
   6.210  0.0000E+00  0.6400E+02
   6.220  0.0000E+00  0.6400E+02
   6.230  0.0000E+00  0.6400E+02
   6.240  0.0000E+00  0.6400E+02
   6.250  0.0000E+00  0.6400E+02
   6.260  0.0000E+00  0.6400E+02
   6.270  0.0000E+00  0.6400E+02
   6.280  0.0000E+00  0.6400E+02
   6.290  0.0000E+00  0.6400E+02
   6.300  0.0000E+00  0.6400E+02
   6.310  0.0000E+00  0.6400E+02
   6.320  0.0000E+00  0.6400E+02
   6.330  0.0000E+00  0.6400E+02
   6.340  0.0000E+00  0.6400E+02
   6.350  0.0000E+00  0.6400E+02
   6.360  0.0000E+00  0.6400E+02
   6.370  0.0000E+00  0.6400E+02
   6.380  0.0000E+00  0.6400E+02
   6.390  0.0000E+00  0.6400E+02
   6.400  0.0000E+00  0.6400E+02
   6.410  0.0000E+00  0.6400E+02
   6.420  0.0000E+00  0.6400E+02
   6.430  0.0000E+00  0.6400E+02
   6.440  0.0000E+00  0.6400E+02
   6.450  0.0000E+00  0.6400E+02
   6.460  0.0000E+00  0.6400E+02
   6.470  0.0000E+00  0.6400E+02
   6.480  0.0000E+00  0.6400E+02
   6.490  0.0000E+00  0.6400E+02
   6.500  0.0000E+00  0.6400E+02
   6.510  0.0000E+00  0.6400E+02
   6.520  0.0000E+00  0.6400E+02
   6.530  0.0000E+00  0.6400E+02
   6.540  0.0000E+00  0.6400E+02
   6.550  0.0000E+00  0.6400E+02
   6.560  0.0000E+00  0.6400E+02
   6.570  0.0000E+00  0.6400E+02
   6.580  0.0000E+00  0.6400E+02
   6.590  0.0000E+00  0.6400E+02
   6.600  0.3776E-02  0.6400E+02
   6.610  0.3827E-01  0.6400E+02
   6.620  0.1012E+00  0.6400E+02
   6.630  0.1927E+00  0.6400E+02
   6.640  0.3192E+00  0.6400E+02
   6.650  0.4677E+00  0.6401E+02
   6.660  0.6739E+00  0.6401E+02
   6.670  0.7658E+00  0.6402E+02
   6.680  0.8236E+00  0.6403E+02
   6.690  0.8590E+00  0.6404E+02
   6.700  0.8906E+00  0.6405E+02
   6.710  0.9546E+00  0.6406E+02
   6.720  0.1095E+01  0.6407E+02
   6.730  0.1294E+01  0.6408E+02
   6.740  0.1199E+01  0.6409E+02
   6.750  0.1282E+01  0.6410E+02
   6.760  0.1371E+01  0.6412E+02
   6.770  0.1462E+01  0.6413E+02
   6.780  0.1552E+01  0.6415E+02
   6.790  0.1642E+01  0.6416E+02
   6.800  0.1732E+01  0.6418E+02
   6.810  0.2014E+01  0.6420E+02
   6.820  0.1914E+01  0.6422E+02
   6.830  0.2010E+01  0.6424E+02
   6.840  0.2091E+01  0.6426E+02
   6.850  0.2101E+01  0.6428E+02
   6.860  0.2207E+01  0.6430E+02
   6.870  0.2170E+01  0.6432E+02
   6.880  0.2194E+01  0.6434E+02
   6.890  0.2236E+01  0.6436E+02
   6.900  0.2287E+01  0.6439E+02
   6.910  0.2354E+01  0.6441E+02
   6.920  0.2441E+01  0.6443E+02
   6.930  0.2568E+01  0.6446E+02
   6.940  0.2624E+01  0.6449E+02
   6.950  0.2658E+01  0.6451E+02
   6.960  0.2677E+01  0.6454E+02
   6.970  0.2727E+01  0.6457E+02
   6.980  0.2766E+01  0.6459E+02
   6.990  0.2810E+01  0.6462E+02
   7.000  0.2861E+01  0.6465E+02
   7.010  0.2925E+01  0.6468E+02
   7.020  0.2989E+01  0.6471E+02
   7.030  0.3025E+01  0.6474E+02
   7.040  0.3090E+01  0.6477E+02
   7.050  0.3152E+01  0.6480E+02
   7.060  0.3231E+01  0.6483E+02
   7.070  0.3330E+01  0.6486E+02
   7.080  0.3416E+01  0.6490E+02
   7.090  0.3458E+01  0.6493E+02
   7.100  0.3501E+01  0.6497E+02
   7.110  0.3509E+01  0.6500E+02
   7.120  0.3549E+01  0.6504E+02
   7.130  0.3593E+01  0.6507E+02
   7.140  0.3629E+01  0.6511E+02
   7.150  0.3661E+01  0.6515E+02
   7.160  0.3699E+01  0.6518E+02
   7.170  0.3743E+01  0.6522E+02
   7.180  0.3793E+01  0.6526E+02
   7.190  0.3833E+01  0.6530E+02
   7.200  0.3848E+01  0.6533E+02
   7.210  0.3851E+01  0.6537E+02
   7.220  0.3886E+01  0.6541E+02
   7.230  0.3923E+01  0.6545E+02
   7.240  0.3971E+01  0.6549E+02
   7.250  0.4040E+01  0.6553E+02
   7.260  0.4120E+01  0.6557E+02
   7.270  0.4152E+01  0.6561E+02
   7.280  0.4200E+01  0.6565E+02
   7.290  0.4218E+01  0.6570E+02
   7.300  0.4234E+01  0.6574E+02
   7.310  0.4260E+01  0.6578E+02
   7.320  0.4302E+01  0.6582E+02
   7.330  0.4359E+01  0.6587E+02
   7.340  0.4423E+01  0.6591E+02
   7.350  0.4487E+01  0.6596E+02
   7.360  0.4518E+01  0.6600E+02
   7.370  0.4578E+01  0.6605E+02
   7.380  0.4635E+01  0.6609E+02
   7.390  0.4696E+01  0.6614E+02
   7.400  0.4773E+01  0.6619E+02
   7.410  0.4858E+01  0.6623E+02
   7.420  0.5031E+01  0.6628E+02
   7.430  0.5113E+01  0.6633E+02
   7.440  0.5200E+01  0.6639E+02
   7.450  0.5299E+01  0.6644E+02
   7.460  0.5385E+01  0.6649E+02
   7.470  0.5456E+01  0.6655E+02
   7.480  0.5525E+01  0.6660E+02
   7.490  0.5605E+01  0.6666E+02
   7.500  0.5742E+01  0.6671E+02
   7.510  0.5873E+01  0.6677E+02
   7.520  0.5981E+01  0.6683E+02
   7.530  0.6025E+01  0.6689E+02
   7.540  0.6063E+01  0.6695E+02
   7.550  0.6236E+01  0.6701E+02
   7.560  0.6461E+01  0.6708E+02
   7.570  0.6348E+01  0.6714E+02
   7.580  0.6401E+01  0.6720E+02
   7.590  0.6391E+01  0.6727E+02
   7.600  0.6221E+01  0.6733E+02
   7.610  0.6201E+01  0.6739E+02
   7.620  0.6222E+01  0.6746E+02
   7.630  0.6313E+01  0.6752E+02
   7.640  0.6413E+01  0.6758E+02
   7.650  0.6517E+01  0.6765E+02
   7.660  0.6614E+01  0.6771E+02
   7.670  0.6698E+01  0.6778E+02
   7.680  0.6827E+01  0.6785E+02
   7.690  0.6991E+01  0.6792E+02
   7.700  0.7127E+01  0.6799E+02
   7.710  0.7210E+01  0.6806E+02
   7.720  0.7178E+01  0.6813E+02
   7.730  0.7348E+01  0.6820E+02
   7.740  0.7504E+01  0.6828E+02
   7.750  0.7650E+01  0.6835E+02
   7.760  0.7795E+01  0.6843E+02
   7.770  0.7997E+01  0.6851E+02
   7.780  0.8096E+01  0.6859E+02
   7.790  0.8118E+01  0.6867E+02
   7.800  0.8195E+01  0.6875E+02
   7.810  0.8259E+01  0.6884E+02
   7.820  0.8292E+01  0.6892E+02
   7.830  0.8315E+01  0.6900E+02
   7.840  0.8319E+01  0.6908E+02
   7.850  0.8302E+01  0.6917E+02
   7.860  0.8293E+01  0.6925E+02
   7.870  0.8329E+01  0.6933E+02
   7.880  0.8457E+01  0.6942E+02
   7.890  0.8556E+01  0.6950E+02
   7.900  0.8671E+01  0.6959E+02
   7.910  0.8785E+01  0.6968E+02
   7.920  0.8933E+01  0.6976E+02
   7.930  0.9119E+01  0.6985E+02
   7.940  0.9316E+01  0.6995E+02
   7.950  0.9457E+01  0.7004E+02
   7.960  0.9551E+01  0.7014E+02
   7.970  0.9774E+01  0.7023E+02
   7.980  0.9885E+01  0.7033E+02
   7.990  0.9981E+01  0.7043E+02
   8.000  0.1021E+02  0.7053E+02
   8.010  0.1039E+02  0.7063E+02
   8.020  0.1054E+02  0.7074E+02
   8.030  0.1067E+02  0.7084E+02
   8.040  0.1080E+02  0.7095E+02
   8.050  0.1104E+02  0.7106E+02
   8.060  0.1133E+02  0.7117E+02
   8.070  0.1169E+02  0.7129E+02
   8.080  0.1195E+02  0.7141E+02
   8.090  0.1211E+02  0.7153E+02
   8.100  0.1224E+02  0.7165E+02
   8.110  0.1237E+02  0.7177E+02
   8.120  0.1250E+02  0.7190E+02
   8.130  0.1251E+02  0.7202E+02
   8.140  0.1246E+02  0.7215E+02
   8.150  0.1250E+02  0.7227E+02
   8.160  0.1255E+02  0.7240E+02
   8.170  0.1254E+02  0.7252E+02
   8.180  0.1269E+02  0.7265E+02
   8.190  0.1286E+02  0.7278E+02
   8.200  0.1302E+02  0.7291E+02
   8.210  0.1302E+02  0.7304E+02
   8.220  0.1228E+02  0.7316E+02
   8.230  0.1208E+02  0.7328E+02
   8.240  0.1209E+02  0.7340E+02
   8.250  0.1214E+02  0.7352E+02
   8.260  0.1226E+02  0.7365E+02
   8.270  0.1233E+02  0.7377E+02
   8.280  0.1238E+02  0.7389E+02
   8.290  0.1250E+02  0.7402E+02
   8.300  0.1254E+02  0.7414E+02
   8.310  0.1251E+02  0.7427E+02
   8.320  0.1232E+02  0.7439E+02
   8.330  0.1214E+02  0.7451E+02
   8.340  0.1199E+02  0.7463E+02
   8.350  0.1184E+02  0.7475E+02
   8.360  0.1181E+02  0.7487E+02
   8.370  0.1181E+02  0.7499E+02
   8.380  0.1184E+02  0.7511E+02
   8.390  0.1196E+02  0.7523E+02
   8.400  0.1200E+02  0.7535E+02
   8.410  0.1202E+02  0.7547E+02
   8.420  0.1204E+02  0.7559E+02
   8.430  0.1199E+02  0.7571E+02
   8.440  0.1201E+02  0.7583E+02
   8.450  0.1203E+02  0.7595E+02
   8.460  0.1192E+02  0.7607E+02
   8.470  0.1200E+02  0.7619E+02
   8.480  0.1210E+02  0.7631E+02
   8.490  0.1212E+02  0.7643E+02
   8.500  0.1214E+02  0.7655E+02
   8.510  0.1216E+02  0.7667E+02
   8.520  0.1208E+02  0.7679E+02
   8.530  0.1173E+02  0.7691E+02
   8.540  0.1147E+02  0.7703E+02
   8.550  0.1128E+02  0.7714E+02
   8.560  0.1116E+02  0.7725E+02
   8.570  0.1099E+02  0.7737E+02
   8.580  0.1090E+02  0.7748E+02
   8.590  0.1084E+02  0.7758E+02
   8.600  0.1062E+02  0.7769E+02
   8.610  0.1052E+02  0.7780E+02
   8.620  0.1054E+02  0.7790E+02
   8.630  0.1059E+02  0.7801E+02
   8.640  0.1062E+02  0.7811E+02
   8.650  0.1060E+02  0.7822E+02
   8.660  0.1047E+02  0.7832E+02
   8.670  0.1039E+02  0.7843E+02
   8.680  0.1025E+02  0.7853E+02
   8.690  0.1014E+02  0.7863E+02
   8.700  0.1003E+02  0.7874E+02
   8.710  0.9984E+01  0.7884E+02
   8.720  0.9924E+01  0.7894E+02
   8.730  0.9726E+01  0.7903E+02
   8.740  0.9653E+01  0.7913E+02
   8.750  0.9643E+01  0.7923E+02
   8.760  0.9684E+01  0.7932E+02
   8.770  0.9734E+01  0.7942E+02
   8.780  0.9771E+01  0.7952E+02
   8.790  0.9774E+01  0.7962E+02
   8.800  0.9739E+01  0.7971E+02
   8.810  0.9500E+01  0.7981E+02
   8.820  0.9444E+01  0.7990E+02
   8.830  0.9381E+01  0.8000E+02
   8.840  0.9316E+01  0.8009E+02
   8.850  0.9263E+01  0.8019E+02
   8.860  0.9217E+01  0.8028E+02
   8.870  0.9180E+01  0.8037E+02
   8.880  0.9223E+01  0.8046E+02
   8.890  0.9162E+01  0.8055E+02
   8.900  0.9168E+01  0.8065E+02
   8.910  0.9180E+01  0.8074E+02
   8.920  0.9091E+01  0.8083E+02
   8.930  0.8835E+01  0.8092E+02
   8.940  0.8713E+01  0.8101E+02
   8.950  0.8635E+01  0.8109E+02
   8.960  0.8579E+01  0.8118E+02
   8.970  0.8552E+01  0.8126E+02
   8.980  0.8515E+01  0.8135E+02
   8.990  0.8496E+01  0.8143E+02
   9.000  0.8466E+01  0.8152E+02
   9.010  0.8435E+01  0.8160E+02
   9.020  0.8415E+01  0.8169E+02
   9.030  0.8365E+01  0.8177E+02
   9.040  0.8375E+01  0.8186E+02
   9.050  0.8424E+01  0.8194E+02
   9.060  0.8312E+01  0.8202E+02
   9.070  0.8331E+01  0.8211E+02
   9.080  0.8361E+01  0.8219E+02
   9.090  0.8376E+01  0.8227E+02
   9.100  0.8393E+01  0.8236E+02
   9.110  0.8461E+01  0.8244E+02
   9.120  0.8568E+01  0.8253E+02
   9.130  0.8702E+01  0.8261E+02
   9.140  0.8932E+01  0.8270E+02
   9.150  0.9247E+01  0.8279E+02
   9.160  0.9627E+01  0.8289E+02
   9.170  0.1014E+02  0.8298E+02
   9.180  0.1141E+02  0.8309E+02
   9.190  0.1268E+02  0.8321E+02
   9.200  0.1310E+02  0.8334E+02
   9.210  0.1380E+02  0.8347E+02
   9.220  0.1446E+02  0.8362E+02
   9.230  0.1568E+02  0.8376E+02
   9.240  0.1674E+02  0.8393E+02
   9.250  0.1782E+02  0.8410E+02
   9.260  0.1870E+02  0.8428E+02
   9.270  0.1935E+02  0.8447E+02
   9.280  0.1967E+02  0.8467E+02
   9.290  0.1882E+02  0.8486E+02
   9.300  0.1869E+02  0.8504E+02
   9.310  0.1858E+02  0.8523E+02
   9.320  0.1815E+02  0.8542E+02
   9.330  0.1754E+02  0.8559E+02
   9.340  0.1750E+02  0.8577E+02
   9.350  0.1734E+02  0.8594E+02
   9.360  0.1713E+02  0.8612E+02
   9.370  0.1671E+02  0.8629E+02
   9.380  0.1636E+02  0.8645E+02
   9.390  0.1584E+02  0.8661E+02
   9.400  0.1566E+02  0.8677E+02
   9.410  0.1560E+02  0.8693E+02
   9.420  0.1557E+02  0.8708E+02
   9.430  0.1546E+02  0.8724E+02
   9.440  0.1529E+02  0.8739E+02
   9.450  0.1511E+02  0.8754E+02
   9.460  0.1497E+02  0.8769E+02
   9.470  0.1487E+02  0.8784E+02
   9.480  0.1465E+02  0.8799E+02
   9.490  0.1446E+02  0.8814E+02
   9.500  0.1433E+02  0.8828E+02
   9.510  0.1423E+02  0.8842E+02
   9.520  0.1411E+02  0.8857E+02
   9.530  0.1403E+02  0.8871E+02
   9.540  0.1383E+02  0.8885E+02
   9.550  0.1361E+02  0.8898E+02
   9.560  0.1353E+02  0.8912E+02
   9.570  0.1345E+02  0.8925E+02
   9.580  0.1339E+02  0.8939E+02
   9.590  0.1339E+02  0.8952E+02
   9.600  0.1336E+02  0.8966E+02
   9.610  0.1330E+02  0.8979E+02
   9.620  0.1332E+02  0.8992E+02
   9.630  0.1348E+02  0.9006E+02
   9.640  0.1382E+02  0.9019E+02
   9.650  0.1420E+02  0.9033E+02
   9.660  0.1437E+02  0.9048E+02
   9.670  0.1423E+02  0.9062E+02
   9.680  0.1415E+02  0.9076E+02
   9.690  0.1417E+02  0.9090E+02
   9.700  0.1416E+02  0.9104E+02
   9.710  0.1408E+02  0.9119E+02
   9.720  0.1396E+02  0.9133E+02
   9.730  0.1383E+02  0.9147E+02
   9.740  0.1367E+02  0.9160E+02
   9.750  0.1353E+02  0.9174E+02
   9.760  0.1344E+02  0.9187E+02
   9.770  0.1355E+02  0.9201E+02
   9.780  0.1375E+02  0.9214E+02
   9.790  0.1377E+02  0.9228E+02
   9.800  0.1384E+02  0.9242E+02
   9.810  0.1352E+02  0.9256E+02
   9.820  0.1326E+02  0.9269E+02
   9.830  0.1300E+02  0.9283E+02
   9.840  0.1253E+02  0.9295E+02
   9.850  0.1204E+02  0.9308E+02
   9.860  0.1197E+02  0.9320E+02
   9.870  0.1198E+02  0.9332E+02
   9.880  0.1191E+02  0.9343E+02
   9.890  0.1191E+02  0.9355E+02
   9.900  0.1171E+02  0.9367E+02
   9.910  0.1138E+02  0.9379E+02
   9.920  0.1115E+02  0.9390E+02
   9.930  0.1096E+02  0.9401E+02
   9.940  0.1079E+02  0.9412E+02
   9.950  0.1065E+02  0.9423E+02
   9.960  0.1042E+02  0.9433E+02
   9.970  0.1026E+02  0.9444E+02
   9.980  0.9874E+01  0.9454E+02
   9.990  0.9699E+01  0.9463E+02
  10.000  0.9615E+01  0.9473E+02
  10.010  0.9565E+01  0.9483E+02
  10.020  0.9580E+01  0.9492E+02
  10.030  0.9541E+01  0.9502E+02
  10.040  0.9484E+01  0.9511E+02
  10.050  0.9385E+01  0.9521E+02
  10.060  0.9225E+01  0.9530E+02
  10.070  0.9127E+01  0.9539E+02
  10.080  0.9070E+01  0.9548E+02
  10.090  0.9031E+01  0.9557E+02
  10.100  0.9044E+01  0.9566E+02
  10.110  0.9113E+01  0.9575E+02
  10.120  0.9138E+01  0.9584E+02
  10.130  0.9231E+01  0.9594E+02
  10.140  0.9355E+01  0.9603E+02
  10.150  0.9520E+01  0.9612E+02
  10.160  0.9692E+01  0.9622E+02
  10.170  0.9894E+01  0.9632E+02
  10.180  0.1018E+02  0.9642E+02
  10.190  0.1040E+02  0.9652E+02
  10.200  0.1063E+02  0.9663E+02
  10.210  0.1072E+02  0.9673E+02
  10.220  0.1093E+02  0.9684E+02
  10.230  0.1128E+02  0.9695E+02
  10.240  0.1181E+02  0.9707E+02
  10.250  0.1161E+02  0.9719E+02
  10.260  0.1140E+02  0.9730E+02
  10.270  0.1118E+02  0.9741E+02
  10.280  0.1101E+02  0.9752E+02
  10.290  0.1094E+02  0.9763E+02
  10.300  0.1102E+02  0.9774E+02
  10.310  0.1104E+02  0.9785E+02
  10.320  0.1138E+02  0.9797E+02
  10.330  0.1055E+02  0.9807E+02
  10.340  0.1021E+02  0.9818E+02
  10.350  0.9930E+01  0.9828E+02
  10.360  0.9594E+01  0.9838E+02
  10.370  0.9346E+01  0.9847E+02
  10.380  0.9283E+01  0.9856E+02
  10.390  0.9243E+01  0.9866E+02
  10.400  0.9209E+01  0.9875E+02
  10.410  0.9195E+01  0.9884E+02
  10.420  0.9267E+01  0.9893E+02
  10.430  0.9332E+01  0.9903E+02
  10.440  0.9379E+01  0.9912E+02
  10.450  0.9437E+01  0.9921E+02
  10.460  0.9549E+01  0.9931E+02
  10.470  0.9769E+01  0.9940E+02
  10.480  0.1009E+02  0.9950E+02
  10.490  0.1031E+02  0.9961E+02
  10.500  0.1046E+02  0.9971E+02
  10.510  0.1070E+02  0.9982E+02
  10.520  0.1075E+02  0.9992E+02
  10.530  0.1078E+02  0.1000E+03
  10.540  0.1085E+02  0.1001E+03
  10.550  0.1094E+02  0.1002E+03
  10.560  0.1106E+02  0.1004E+03
  10.570  0.1109E+02  0.1005E+03
  10.580  0.1109E+02  0.1006E+03
  10.590  0.1112E+02  0.1007E+03
  10.600  0.1125E+02  0.1008E+03
  10.610  0.1142E+02  0.1009E+03
  10.620  0.1163E+02  0.1010E+03
  10.630  0.1161E+02  0.1011E+03
  10.640  0.1146E+02  0.1013E+03
  10.650  0.1116E+02  0.1014E+03
  10.660  0.1076E+02  0.1015E+03
  10.670  0.1053E+02  0.1016E+03
  10.680  0.1046E+02  0.1017E+03
  10.690  0.1047E+02  0.1018E+03
  10.700  0.1056E+02  0.1019E+03
  10.710  0.1067E+02  0.1020E+03
  10.720  0.1091E+02  0.1021E+03
  10.730  0.1113E+02  0.1022E+03
  10.740  0.1101E+02  0.1023E+03
  10.750  0.1069E+02  0.1024E+03
  10.760  0.1061E+02  0.1026E+03
  10.770  0.1085E+02  0.1027E+03
  10.780  0.1110E+02  0.1028E+03
  10.790  0.1096E+02  0.1029E+03
  10.800  0.1045E+02  0.1030E+03
  10.810  0.1017E+02  0.1031E+03
  10.820  0.1019E+02  0.1032E+03
  10.830  0.1014E+02  0.1033E+03
  10.840  0.1005E+02  0.1034E+03
  10.850  0.1002E+02  0.1035E+03
  10.860  0.9981E+01  0.1036E+03
  10.870  0.9947E+01  0.1037E+03
  10.880  0.9958E+01  0.1038E+03
  10.890  0.9872E+01  0.1039E+03
  10.900  0.9646E+01  0.1040E+03
  10.910  0.9535E+01  0.1041E+03
  10.920  0.9372E+01  0.1042E+03
  10.930  0.9087E+01  0.1043E+03
  10.940  0.8816E+01  0.1044E+03
  10.950  0.8725E+01  0.1045E+03
  10.960  0.8677E+01  0.1045E+03
  10.970  0.8726E+01  0.1046E+03
  10.980  0.8897E+01  0.1047E+03
  10.990  0.8947E+01  0.1048E+03
  11.000  0.8999E+01  0.1049E+03
  11.010  0.9070E+01  0.1050E+03
  11.020  0.9141E+01  0.1051E+03
  11.030  0.9232E+01  0.1052E+03
  11.040  0.9342E+01  0.1053E+03
  11.050  0.9425E+01  0.1054E+03
  11.060  0.9429E+01  0.1054E+03
  11.070  0.9539E+01  0.1055E+03
  11.080  0.9816E+01  0.1056E+03
  11.090  0.1002E+02  0.1057E+03
  11.100  0.9957E+01  0.1058E+03
  11.110  0.9991E+01  0.1059E+03
  11.120  0.1009E+02  0.1060E+03
  11.130  0.1013E+02  0.1061E+03
  11.140  0.1022E+02  0.1062E+03
  11.150  0.1027E+02  0.1063E+03
  11.160  0.1053E+02  0.1064E+03
  11.170  0.1062E+02  0.1066E+03
  11.180  0.1081E+02  0.1067E+03
  11.190  0.1086E+02  0.1068E+03
  11.200  0.1073E+02  0.1069E+03
  11.210  0.1053E+02  0.1070E+03
  11.220  0.1034E+02  0.1071E+03
  11.230  0.1013E+02  0.1072E+03
  11.240  0.9936E+01  0.1073E+03
  11.250  0.9767E+01  0.1074E+03
  11.260  0.9552E+01  0.1075E+03
  11.270  0.9589E+01  0.1076E+03
  11.280  0.9281E+01  0.1077E+03
  11.290  0.9175E+01  0.1078E+03
  11.300  0.9201E+01  0.1079E+03
  11.310  0.9254E+01  0.1080E+03
  11.320  0.9319E+01  0.1080E+03
  11.330  0.9586E+01  0.1081E+03
  11.340  0.9751E+01  0.1082E+03
  11.350  0.9973E+01  0.1083E+03
  11.360  0.9873E+01  0.1084E+03
  11.370  0.9600E+01  0.1085E+03
  11.380  0.9368E+01  0.1086E+03
  11.390  0.9157E+01  0.1087E+03
  11.400  0.8905E+01  0.1088E+03
  11.410  0.8642E+01  0.1089E+03
  11.420  0.8471E+01  0.1090E+03
  11.430  0.8349E+01  0.1091E+03
  11.440  0.8216E+01  0.1092E+03
  11.450  0.8235E+01  0.1092E+03
  11.460  0.8296E+01  0.1093E+03
  11.470  0.8337E+01  0.1094E+03
  11.480  0.8348E+01  0.1095E+03
  11.490  0.8444E+01  0.1096E+03
  11.500  0.8513E+01  0.1097E+03
  11.510  0.8548E+01  0.1097E+03
  11.520  0.8568E+01  0.1098E+03
  11.530  0.8568E+01  0.1099E+03
  11.540  0.8576E+01  0.1100E+03
  11.550  0.8573E+01  0.1101E+03
  11.560  0.8557E+01  0.1102E+03
  11.570  0.8515E+01  0.1102E+03
  11.580  0.8472E+01  0.1103E+03
  11.590  0.8378E+01  0.1104E+03
  11.600  0.8317E+01  0.1105E+03
  11.610  0.8230E+01  0.1106E+03
  11.620  0.8111E+01  0.1107E+03
  11.630  0.7930E+01  0.1107E+03
  11.640  0.7826E+01  0.1108E+03
  11.650  0.7758E+01  0.1109E+03
  11.660  0.7733E+01  0.1110E+03
  11.670  0.7715E+01  0.1111E+03
  11.680  0.7689E+01  0.1111E+03
  11.690  0.7838E+01  0.1112E+03
  11.700  0.7652E+01  0.1113E+03
  11.710  0.7632E+01  0.1114E+03
  11.720  0.7647E+01  0.1114E+03
  11.730  0.7670E+01  0.1115E+03
  11.740  0.7709E+01  0.1116E+03
  11.750  0.7792E+01  0.1117E+03
  11.760  0.7884E+01  0.1118E+03
  11.770  0.8275E+01  0.1118E+03
  11.780  0.8182E+01  0.1119E+03
  11.790  0.8414E+01  0.1120E+03
  11.800  0.8613E+01  0.1121E+03
  11.810  0.9024E+01  0.1122E+03
  11.820  0.8991E+01  0.1123E+03
  11.830  0.8859E+01  0.1123E+03
  11.840  0.8915E+01  0.1124E+03
  11.850  0.8881E+01  0.1125E+03
  11.860  0.8912E+01  0.1126E+03
  11.870  0.9038E+01  0.1127E+03
  11.880  0.9063E+01  0.1128E+03
  11.890  0.9040E+01  0.1129E+03
  11.900  0.8973E+01  0.1130E+03
  11.910  0.8863E+01  0.1131E+03
  11.920  0.8751E+01  0.1132E+03
  11.930  0.8700E+01  0.1132E+03
  11.940  0.8414E+01  0.1133E+03
  11.950  0.8369E+01  0.1134E+03
  11.960  0.8430E+01  0.1135E+03
  11.970  0.8668E+01  0.1136E+03
  11.980  0.8833E+01  0.1137E+03
  11.990  0.8972E+01  0.1138E+03
  12.000  0.9069E+01  0.1138E+03
  12.010  0.8969E+01  0.1139E+03
  12.020  0.8822E+01  0.1140E+03
  12.030  0.8637E+01  0.1141E+03
  12.040  0.8649E+01  0.1142E+03
  12.050  0.8690E+01  0.1143E+03
  12.060  0.8718E+01  0.1144E+03
  12.070  0.8762E+01  0.1145E+03
  12.080  0.8753E+01  0.1145E+03
  12.090  0.8743E+01  0.1146E+03
  12.100  0.8736E+01  0.1147E+03
  12.110  0.8736E+01  0.1148E+03
  12.120  0.8765E+01  0.1149E+03
  12.130  0.8782E+01  0.1150E+03
  12.140  0.8745E+01  0.1151E+03
  12.150  0.8651E+01  0.1152E+03
  12.160  0.8504E+01  0.1152E+03
  12.170  0.8353E+01  0.1153E+03
  12.180  0.8258E+01  0.1154E+03
  12.190  0.8225E+01  0.1155E+03
  12.200  0.8153E+01  0.1156E+03
  12.210  0.8081E+01  0.1157E+03
  12.220  0.8046E+01  0.1157E+03
  12.230  0.8036E+01  0.1158E+03
  12.240  0.8045E+01  0.1159E+03
  12.250  0.8064E+01  0.1160E+03
  12.260  0.8145E+01  0.1161E+03
  12.270  0.8288E+01  0.1161E+03
  12.280  0.8698E+01  0.1162E+03
  12.290  0.8662E+01  0.1163E+03
  12.300  0.8844E+01  0.1164E+03
  12.310  0.8957E+01  0.1165E+03
  12.320  0.9056E+01  0.1166E+03
  12.330  0.9081E+01  0.1167E+03
  12.340  0.9126E+01  0.1168E+03
  12.350  0.9176E+01  0.1169E+03
  12.360  0.9270E+01  0.1169E+03
  12.370  0.9398E+01  0.1170E+03
  12.380  0.9290E+01  0.1171E+03
  12.390  0.9435E+01  0.1172E+03
  12.400  0.9539E+01  0.1173E+03
  12.410  0.9707E+01  0.1174E+03
  12.420  0.9819E+01  0.1175E+03
  12.430  0.9845E+01  0.1176E+03
  12.440  0.9771E+01  0.1177E+03
  12.450  0.9716E+01  0.1178E+03
  12.460  0.9745E+01  0.1179E+03
  12.470  0.9873E+01  0.1180E+03
  12.480  0.9937E+01  0.1181E+03
  12.490  0.1000E+02  0.1182E+03
  12.500  0.1008E+02  0.1183E+03
  12.510  0.1013E+02  0.1184E+03
  12.520  0.1009E+02  0.1185E+03
  12.530  0.1003E+02  0.1186E+03
  12.540  0.9921E+01  0.1187E+03
  12.550  0.9872E+01  0.1188E+03
  12.560  0.9929E+01  0.1189E+03
  12.570  0.9801E+01  0.1190E+03
  12.580  0.9739E+01  0.1191E+03
  12.590  0.9690E+01  0.1192E+03
  12.600  0.9664E+01  0.1193E+03
  12.610  0.9646E+01  0.1194E+03
  12.620  0.9629E+01  0.1195E+03
  12.630  0.9619E+01  0.1196E+03
  12.640  0.9614E+01  0.1197E+03
  12.650  0.9567E+01  0.1198E+03
  12.660  0.9512E+01  0.1199E+03
  12.670  0.9451E+01  0.1200E+03
  12.680  0.9397E+01  0.1201E+03
  12.690  0.9404E+01  0.1202E+03
  12.700  0.9131E+01  0.1202E+03
  12.710  0.8994E+01  0.1203E+03
  12.720  0.8984E+01  0.1204E+03
  12.730  0.9012E+01  0.1205E+03
  12.740  0.9046E+01  0.1206E+03
  12.750  0.9078E+01  0.1207E+03
  12.760  0.9103E+01  0.1208E+03
  12.770  0.9148E+01  0.1209E+03
  12.780  0.9155E+01  0.1210E+03
  12.790  0.9049E+01  0.1211E+03
  12.800  0.8981E+01  0.1212E+03
  12.810  0.8917E+01  0.1212E+03
  12.820  0.8866E+01  0.1213E+03
  12.830  0.8833E+01  0.1214E+03
  12.840  0.8773E+01  0.1215E+03
  12.850  0.8750E+01  0.1216E+03
  12.860  0.8775E+01  0.1217E+03
  12.870  0.8815E+01  0.1218E+03
  12.880  0.8869E+01  0.1219E+03
  12.890  0.8928E+01  0.1219E+03
  12.900  0.9010E+01  0.1220E+03
  12.910  0.9072E+01  0.1221E+03
  12.920  0.9108E+01  0.1222E+03
  12.930  0.9194E+01  0.1223E+03
  12.940  0.9138E+01  0.1224E+03
  12.950  0.9016E+01  0.1225E+03
  12.960  0.8948E+01  0.1226E+03
  12.970  0.8933E+01  0.1227E+03
  12.980  0.8974E+01  0.1228E+03
  12.990  0.9043E+01  0.1229E+03
  13.000  0.9112E+01  0.1229E+03
  13.010  0.9253E+01  0.1230E+03
  13.020  0.9508E+01  0.1231E+03
  13.030  0.1011E+02  0.1232E+03
  13.040  0.1015E+02  0.1233E+03
  13.050  0.1031E+02  0.1234E+03
  13.060  0.1021E+02  0.1235E+03
  13.070  0.9860E+01  0.1236E+03
  13.080  0.9425E+01  0.1237E+03
  13.090  0.9196E+01  0.1238E+03
  13.100  0.9065E+01  0.1239E+03
  13.110  0.8952E+01  0.1240E+03
  13.120  0.8793E+01  0.1241E+03
  13.130  0.8617E+01  0.1242E+03
  13.140  0.8432E+01  0.1243E+03
  13.150  0.8258E+01  0.1243E+03
  13.160  0.8088E+01  0.1244E+03
  13.170  0.7933E+01  0.1245E+03
  13.180  0.7778E+01  0.1246E+03
  13.190  0.7623E+01  0.1247E+03
  13.200  0.7476E+01  0.1247E+03
  13.210  0.7337E+01  0.1248E+03
  13.220  0.7197E+01  0.1249E+03
  13.230  0.7057E+01  0.1250E+03
  13.240  0.6919E+01  0.1250E+03
  13.250  0.6782E+01  0.1251E+03
  13.260  0.6645E+01  0.1252E+03
  13.270  0.6510E+01  0.1252E+03
  13.280  0.6374E+01  0.1253E+03
  13.290  0.6241E+01  0.1254E+03
  13.300  0.6108E+01  0.1254E+03
  13.310  0.5978E+01  0.1255E+03
  13.320  0.5890E+01  0.1255E+03
  13.330  0.5822E+01  0.1256E+03
  13.340  0.5742E+01  0.1257E+03
  13.350  0.5656E+01  0.1257E+03
  13.360  0.5578E+01  0.1258E+03
  13.370  0.5506E+01  0.1258E+03
  13.380  0.5435E+01  0.1259E+03
  13.390  0.5379E+01  0.1259E+03
  13.400  0.5326E+01  0.1260E+03
  13.410  0.5278E+01  0.1260E+03
  13.420  0.5235E+01  0.1261E+03
  13.430  0.5200E+01  0.1261E+03
  13.440  0.5168E+01  0.1262E+03
  13.450  0.5141E+01  0.1262E+03
  13.460  0.5120E+01  0.1263E+03
  13.470  0.5107E+01  0.1264E+03
  13.480  0.5105E+01  0.1264E+03
  13.490  0.5113E+01  0.1265E+03
  13.500  0.5122E+01  0.1265E+03
  13.510  0.5138E+01  0.1266E+03
  13.520  0.5172E+01  0.1266E+03
  13.530  0.5179E+01  0.1267E+03
  13.540  0.5173E+01  0.1267E+03
  13.550  0.5293E+01  0.1268E+03
  13.560  0.5233E+01  0.1268E+03
  13.570  0.5278E+01  0.1269E+03
  13.580  0.5337E+01  0.1269E+03
  13.590  0.5367E+01  0.1270E+03
  13.600  0.5333E+01  0.1270E+03
  13.610  0.5303E+01  0.1271E+03
  13.620  0.5308E+01  0.1271E+03
  13.630  0.5339E+01  0.1272E+03
  13.640  0.5290E+01  0.1272E+03
  13.650  0.5280E+01  0.1273E+03
  13.660  0.5404E+01  0.1273E+03
  13.670  0.5402E+01  0.1274E+03
  13.680  0.5453E+01  0.1275E+03
  13.690  0.5384E+01  0.1275E+03
  13.700  0.5268E+01  0.1276E+03
  13.710  0.5179E+01  0.1276E+03
  13.720  0.5127E+01  0.1277E+03
  13.730  0.5197E+01  0.1277E+03
  13.740  0.5891E+01  0.1278E+03
  13.750  0.5697E+01  0.1278E+03
  13.760  0.5712E+01  0.1279E+03
  13.770  0.5601E+01  0.1279E+03
  13.780  0.5465E+01  0.1280E+03
  13.790  0.5268E+01  0.1281E+03
  13.800  0.5210E+01  0.1281E+03
  13.810  0.5082E+01  0.1282E+03
  13.820  0.5171E+01  0.1282E+03
  13.830  0.4623E+01  0.1283E+03
  13.840  0.4410E+01  0.1283E+03
  13.850  0.4289E+01  0.1283E+03
  13.860  0.4158E+01  0.1284E+03
  13.870  0.4021E+01  0.1284E+03
  13.880  0.3933E+01  0.1285E+03
  13.890  0.3834E+01  0.1285E+03
  13.900  0.3727E+01  0.1285E+03
  13.910  0.3609E+01  0.1286E+03
  13.920  0.3514E+01  0.1286E+03
  13.930  0.3414E+01  0.1286E+03
  13.940  0.3236E+01  0.1287E+03
  13.950  0.3066E+01  0.1287E+03
  13.960  0.2891E+01  0.1287E+03
  13.970  0.2784E+01  0.1288E+03
  13.980  0.2708E+01  0.1288E+03
  13.990  0.2632E+01  0.1288E+03
  14.000  0.2557E+01  0.1289E+03
  14.010  0.2486E+01  0.1289E+03
  14.020  0.2398E+01  0.1289E+03
  14.030  0.2276E+01  0.1289E+03
  14.040  0.2120E+01  0.1289E+03
  14.050  0.1984E+01  0.1290E+03
  14.060  0.1890E+01  0.1290E+03
  14.070  0.1869E+01  0.1290E+03
  14.080  0.1870E+01  0.1290E+03
  14.090  0.1879E+01  0.1290E+03
  14.100  0.1888E+01  0.1291E+03
  14.110  0.1894E+01  0.1291E+03
  14.120  0.1894E+01  0.1291E+03
  14.130  0.1890E+01  0.1291E+03
  14.140  0.1882E+01  0.1291E+03
  14.150  0.1868E+01  0.1292E+03
  14.160  0.1852E+01  0.1292E+03
  14.170  0.1835E+01  0.1292E+03
  14.180  0.1801E+01  0.1292E+03
  14.190  0.1768E+01  0.1292E+03
  14.200  0.1743E+01  0.1292E+03
  14.210  0.1682E+01  0.1293E+03
  14.220  0.1618E+01  0.1293E+03
  14.230  0.1550E+01  0.1293E+03
  14.240  0.1466E+01  0.1293E+03
  14.250  0.1438E+01  0.1293E+03
  14.260  0.1379E+01  0.1293E+03
  14.270  0.1328E+01  0.1294E+03
  14.280  0.1283E+01  0.1294E+03
  14.290  0.1237E+01  0.1294E+03
  14.300  0.1191E+01  0.1294E+03
  14.310  0.1151E+01  0.1294E+03
  14.320  0.1118E+01  0.1294E+03
  14.330  0.1092E+01  0.1294E+03
  14.340  0.1071E+01  0.1294E+03
  14.350  0.1057E+01  0.1294E+03
  14.360  0.1045E+01  0.1295E+03
  14.370  0.1033E+01  0.1295E+03
  14.380  0.1023E+01  0.1295E+03
  14.390  0.1013E+01  0.1295E+03
  14.400  0.1004E+01  0.1295E+03
  14.410  0.9976E+00  0.1295E+03
  14.420  0.9936E+00  0.1295E+03
  14.430  0.1006E+01  0.1295E+03
  14.440  0.1031E+01  0.1295E+03
  14.450  0.1000E+01  0.1295E+03
  14.460  0.9628E+00  0.1296E+03
  14.470  0.9193E+00  0.1296E+03
  14.480  0.9034E+00  0.1296E+03
  14.490  0.8943E+00  0.1296E+03
  14.500  0.8819E+00  0.1296E+03
  14.510  0.8693E+00  0.1296E+03
  14.520  0.8564E+00  0.1296E+03
  14.530  0.8427E+00  0.1296E+03
  14.540  0.8206E+00  0.1296E+03
  14.550  0.8053E+00  0.1296E+03
  14.560  0.7901E+00  0.1296E+03
  14.570  0.7750E+00  0.1297E+03
  14.580  0.7601E+00  0.1297E+03
  14.590  0.7452E+00  0.1297E+03
  14.600  0.7306E+00  0.1297E+03
  14.610  0.7148E+00  0.1297E+03
  14.620  0.6983E+00  0.1297E+03
  14.630  0.6839E+00  0.1297E+03
  14.640  0.6705E+00  0.1297E+03
  14.650  0.6571E+00  0.1297E+03
  14.660  0.6439E+00  0.1297E+03
  14.670  0.6309E+00  0.1297E+03
  14.680  0.6180E+00  0.1297E+03
  14.690  0.6053E+00  0.1297E+03
  14.700  0.5928E+00  0.1297E+03
  14.710  0.5803E+00  0.1297E+03
  14.720  0.5773E+00  0.1298E+03
  14.730  0.5769E+00  0.1298E+03
  14.740  0.5648E+00  0.1298E+03
  14.750  0.5439E+00  0.1298E+03
  14.760  0.5228E+00  0.1298E+03
  14.770  0.5023E+00  0.1298E+03
  14.780  0.4819E+00  0.1298E+03
  14.790  0.4518E+00  0.1298E+03
  14.800  0.4414E+00  0.1298E+03
  14.810  0.4333E+00  0.1298E+03
  14.820  0.4251E+00  0.1298E+03
  14.830  0.4167E+00  0.1298E+03
  14.840  0.4084E+00  0.1298E+03
  14.850  0.4001E+00  0.1298E+03
  14.860  0.3920E+00  0.1298E+03
  14.870  0.3840E+00  0.1298E+03
  14.880  0.3760E+00  0.1298E+03
  14.890  0.3682E+00  0.1298E+03
  14.900  0.3604E+00  0.1298E+03
  14.910  0.3498E+00  0.1298E+03
  14.920  0.3404E+00  0.1298E+03
  14.930  0.3338E+00  0.1298E+03
  14.940  0.3275E+00  0.1298E+03
  14.950  0.3214E+00  0.1299E+03
  14.960  0.3155E+00  0.1299E+03
  14.970  0.3098E+00  0.1299E+03
  14.980  0.3042E+00  0.1299E+03
  14.990  0.2998E+00  0.1299E+03
  15.000  0.2957E+00  0.1299E+03
  15.010  0.2915E+00  0.1299E+03
  15.020  0.2875E+00  0.1299E+03
  15.030  0.2834E+00  0.1299E+03
  15.040  0.2794E+00  0.1299E+03
  15.050  0.2754E+00  0.1299E+03
  15.060  0.2714E+00  0.1299E+03
  15.070  0.2675E+00  0.1299E+03
  15.080  0.2636E+00  0.1299E+03
  15.090  0.2598E+00  0.1299E+03
  15.100  0.2561E+00  0.1299E+03
  15.110  0.2524E+00  0.1299E+03
  15.120  0.2487E+00  0.1299E+03
  15.130  0.2451E+00  0.1299E+03
  15.140  0.2416E+00  0.1299E+03
  15.150  0.2381E+00  0.1299E+03
  15.160  0.2347E+00  0.1299E+03
  15.170  0.2314E+00  0.1299E+03
  15.180  0.2281E+00  0.1299E+03
  15.190  0.2248E+00  0.1299E+03
  15.200  0.2217E+00  0.1299E+03
  15.210  0.2186E+00  0.1299E+03
  15.220  0.2155E+00  0.1299E+03
  15.230  0.2125E+00  0.1299E+03
  15.240  0.2095E+00  0.1299E+03
  15.250  0.2068E+00  0.1299E+03
  15.260  0.2045E+00  0.1299E+03
  15.270  0.2117E+00  0.1299E+03
  15.280  0.2251E+00  0.1299E+03
  15.290  0.2369E+00  0.1299E+03
  15.300  0.2315E+00  0.1299E+03
  15.310  0.2250E+00  0.1299E+03
  15.320  0.2133E+00  0.1299E+03
  15.330  0.1979E+00  0.1299E+03
  15.340  0.1847E+00  0.1299E+03
  15.350  0.1809E+00  0.1300E+03
  15.360  0.1771E+00  0.1300E+03
  15.370  0.1733E+00  0.1300E+03
  15.380  0.1696E+00  0.1300E+03
  15.390  0.1658E+00  0.1300E+03
  15.400  0.1621E+00  0.1300E+03
  15.410  0.1584E+00  0.1300E+03
  15.420  0.1547E+00  0.1300E+03
  15.430  0.1511E+00  0.1300E+03
  15.440  0.1475E+00  0.1300E+03
  15.450  0.1439E+00  0.1300E+03
  15.460  0.1403E+00  0.1300E+03
  15.470  0.1368E+00  0.1300E+03
  15.480  0.1332E+00  0.1300E+03
  15.490  0.1297E+00  0.1300E+03
  15.500  0.1264E+00  0.1300E+03
  15.510  0.1233E+00  0.1300E+03
  15.520  0.1203E+00  0.1300E+03
  15.530  0.1173E+00  0.1300E+03
  15.540  0.1143E+00  0.1300E+03
  15.550  0.1114E+00  0.1300E+03
  15.560  0.1085E+00  0.1300E+03
  15.570  0.1057E+00  0.1300E+03
  15.580  0.1029E+00  0.1300E+03
  15.590  0.1002E+00  0.1300E+03
  15.600  0.9750E-01  0.1300E+03
  15.610  0.9706E-01  0.1300E+03
  15.620  0.9694E-01  0.1300E+03
  15.630  0.9616E-01  0.1300E+03
  15.640  0.9473E-01  0.1300E+03
  15.650  0.9265E-01  0.1300E+03
  15.660  0.8991E-01  0.1300E+03
  15.670  0.8652E-01  0.1300E+03
  15.680  0.8247E-01  0.1300E+03
  15.690  0.7777E-01  0.1300E+03
  15.700  0.7242E-01  0.1300E+03
  15.710  0.6641E-01  0.1300E+03
  15.720  0.5975E-01  0.1300E+03
  15.730  0.8773E-01  0.1300E+03
  15.740  0.8471E-01  0.1300E+03
  15.750  0.1316E+00  0.1300E+03
  15.760  0.3336E-01  0.1300E+03
  15.770  0.2882E-01  0.1300E+03
  15.780  0.2460E-01  0.1300E+03
  15.790  0.2073E-01  0.1300E+03
  15.800  0.1718E-01  0.1300E+03
  15.810  0.1396E-01  0.1300E+03
  15.820  0.1108E-01  0.1300E+03
  15.830  0.8534E-02  0.1300E+03
  15.840  0.6318E-02  0.1300E+03
  15.850  0.4434E-02  0.1300E+03
  15.860  0.2883E-02  0.1300E+03
  15.870  0.1665E-02  0.1300E+03
  15.880  0.7786E-03  0.1300E+03
  15.890  0.2253E-03  0.1300E+03
  15.900  0.4465E-05  0.1300E+03
  15.910  0.0000E+00  0.1300E+03
  15.920  0.0000E+00  0.1300E+03
  15.930  0.0000E+00  0.1300E+03
  15.940  0.0000E+00  0.1300E+03
  15.950  0.0000E+00  0.1300E+03
  15.960  0.0000E+00  0.1300E+03
  15.970  0.0000E+00  0.1300E+03
  15.980  0.0000E+00  0.1300E+03
  15.990  0.0000E+00  0.1300E+03
  16.000  0.0000E+00  0.1300E+03
  16.010  0.0000E+00  0.1300E+03
  16.020  0.0000E+00  0.1300E+03
  16.030  0.0000E+00  0.1300E+03
  16.040  0.0000E+00  0.1300E+03
  16.050  0.0000E+00  0.1300E+03
  16.060  0.0000E+00  0.1300E+03
  16.070  0.0000E+00  0.1300E+03
  16.080  0.0000E+00  0.1300E+03
  16.090  0.0000E+00  0.1300E+03
  16.100  0.0000E+00  0.1300E+03
  16.110  0.0000E+00  0.1300E+03
  16.120  0.0000E+00  0.1300E+03
  16.130  0.0000E+00  0.1300E+03
  16.140  0.0000E+00  0.1300E+03
  16.150  0.0000E+00  0.1300E+03
  16.160  0.0000E+00  0.1300E+03
  16.170  0.0000E+00  0.1300E+03
  16.180  0.0000E+00  0.1300E+03
  16.190  0.0000E+00  0.1300E+03
  16.200  0.0000E+00  0.1300E+03
  16.210  0.0000E+00  0.1300E+03
  16.220  0.0000E+00  0.1300E+03
  16.230  0.0000E+00  0.1300E+03
  16.240  0.0000E+00  0.1300E+03
  16.250  0.0000E+00  0.1300E+03
  16.260  0.0000E+00  0.1300E+03
  16.270  0.0000E+00  0.1300E+03
  16.280  0.0000E+00  0.1300E+03
  16.290  0.0000E+00  0.1300E+03
  16.300  0.0000E+00  0.1300E+03
  16.310  0.0000E+00  0.1300E+03
  16.320  0.0000E+00  0.1300E+03
  16.330  0.0000E+00  0.1300E+03
  16.340  0.0000E+00  0.1300E+03
  16.350  0.0000E+00  0.1300E+03
  16.360  0.0000E+00  0.1300E+03
  16.370  0.0000E+00  0.1300E+03
  16.380  0.0000E+00  0.1300E+03
  16.390  0.0000E+00  0.1300E+03
  16.400  0.0000E+00  0.1300E+03
  16.410  0.0000E+00  0.1300E+03
  16.420  0.0000E+00  0.1300E+03
  16.430  0.0000E+00  0.1300E+03
  16.440  0.0000E+00  0.1300E+03
  16.450  0.0000E+00  0.1300E+03
  16.460  0.0000E+00  0.1300E+03
  16.470  0.0000E+00  0.1300E+03
  16.480  0.0000E+00  0.1300E+03
  16.490  0.0000E+00  0.1300E+03
  16.500  0.0000E+00  0.1300E+03
  16.510  0.0000E+00  0.1300E+03
  16.520  0.0000E+00  0.1300E+03
  16.530  0.0000E+00  0.1300E+03
  16.540  0.0000E+00  0.1300E+03
  16.550  0.0000E+00  0.1300E+03
  16.560  0.0000E+00  0.1300E+03
  16.570  0.0000E+00  0.1300E+03
  16.580  0.0000E+00  0.1300E+03
  16.590  0.0000E+00  0.1300E+03
  16.600  0.0000E+00  0.1300E+03
  16.610  0.0000E+00  0.1300E+03
  16.620  0.0000E+00  0.1300E+03
  16.630  0.0000E+00  0.1300E+03
  16.640  0.0000E+00  0.1300E+03
  16.650  0.0000E+00  0.1300E+03
  16.660  0.0000E+00  0.1300E+03
  16.670  0.0000E+00  0.1300E+03
  16.680  0.0000E+00  0.1300E+03
  16.690  0.0000E+00  0.1300E+03
  16.700  0.0000E+00  0.1300E+03
  16.710  0.0000E+00  0.1300E+03
  16.720  0.0000E+00  0.1300E+03
  16.730  0.0000E+00  0.1300E+03
  16.740  0.0000E+00  0.1300E+03
  16.750  0.0000E+00  0.1300E+03
  16.760  0.0000E+00  0.1300E+03
  16.770  0.0000E+00  0.1300E+03
  16.780  0.0000E+00  0.1300E+03
  16.790  0.0000E+00  0.1300E+03
  16.800  0.0000E+00  0.1300E+03
  16.810  0.0000E+00  0.1300E+03
  16.820  0.0000E+00  0.1300E+03
  16.830  0.0000E+00  0.1300E+03
  16.840  0.0000E+00  0.1300E+03
  16.850  0.0000E+00  0.1300E+03
  16.860  0.0000E+00  0.1300E+03
  16.870  0.0000E+00  0.1300E+03
  16.880  0.0000E+00  0.1300E+03
  16.890  0.0000E+00  0.1300E+03
  16.900  0.0000E+00  0.1300E+03
  16.910  0.0000E+00  0.1300E+03
  16.920  0.0000E+00  0.1300E+03
  16.930  0.0000E+00  0.1300E+03
  16.940  0.0000E+00  0.1300E+03
  16.950  0.0000E+00  0.1300E+03
  16.960  0.0000E+00  0.1300E+03
  16.970  0.0000E+00  0.1300E+03
  16.980  0.0000E+00  0.1300E+03
  16.990  0.0000E+00  0.1300E+03
  17.000  0.0000E+00  0.1300E+03
  17.010  0.0000E+00  0.1300E+03
  17.020  0.0000E+00  0.1300E+03
  17.030  0.0000E+00  0.1300E+03
  17.040  0.0000E+00  0.1300E+03
  17.050  0.0000E+00  0.1300E+03
  17.060  0.0000E+00  0.1300E+03
  17.070  0.0000E+00  0.1300E+03
  17.080  0.0000E+00  0.1300E+03
  17.090  0.0000E+00  0.1300E+03
  17.100  0.0000E+00  0.1300E+03
  17.110  0.0000E+00  0.1300E+03
  17.120  0.0000E+00  0.1300E+03
  17.130  0.0000E+00  0.1300E+03
  17.140  0.0000E+00  0.1300E+03
  17.150  0.0000E+00  0.1300E+03
  17.160  0.0000E+00  0.1300E+03
  17.170  0.0000E+00  0.1300E+03
  17.180  0.0000E+00  0.1300E+03
  17.190  0.0000E+00  0.1300E+03
  17.200  0.0000E+00  0.1300E+03
  17.210  0.0000E+00  0.1300E+03
  17.220  0.0000E+00  0.1300E+03
  17.230  0.0000E+00  0.1300E+03
  17.240  0.0000E+00  0.1300E+03
  17.250  0.0000E+00  0.1300E+03
  17.260  0.0000E+00  0.1300E+03
  17.270  0.0000E+00  0.1300E+03
  17.280  0.0000E+00  0.1300E+03
  17.290  0.0000E+00  0.1300E+03
  17.300  0.0000E+00  0.1300E+03
  17.310  0.0000E+00  0.1300E+03
  17.320  0.0000E+00  0.1300E+03
  17.330  0.0000E+00  0.1300E+03
  17.340  0.0000E+00  0.1300E+03
  17.350  0.0000E+00  0.1300E+03
  17.360  0.0000E+00  0.1300E+03
  17.370  0.0000E+00  0.1300E+03
  17.380  0.0000E+00  0.1300E+03
  17.390  0.0000E+00  0.1300E+03
  17.400  0.0000E+00  0.1300E+03
  17.410  0.0000E+00  0.1300E+03
  17.420  0.0000E+00  0.1300E+03
  17.430  0.0000E+00  0.1300E+03
  17.440  0.0000E+00  0.1300E+03
  17.450  0.0000E+00  0.1300E+03
  17.460  0.0000E+00  0.1300E+03
  17.470  0.0000E+00  0.1300E+03
  17.480  0.0000E+00  0.1300E+03
  17.490  0.0000E+00  0.1300E+03
  17.500  0.0000E+00  0.1300E+03
  17.510  0.0000E+00  0.1300E+03
  17.520  0.0000E+00  0.1300E+03
  17.530  0.0000E+00  0.1300E+03
  17.540  0.0000E+00  0.1300E+03
  17.550  0.0000E+00  0.1300E+03
  17.560  0.0000E+00  0.1300E+03
  17.570  0.0000E+00  0.1300E+03
  17.580  0.0000E+00  0.1300E+03
  17.590  0.0000E+00  0.1300E+03
  17.600  0.0000E+00  0.1300E+03
  17.610  0.0000E+00  0.1300E+03
  17.620  0.0000E+00  0.1300E+03
  17.630  0.0000E+00  0.1300E+03
  17.640  0.0000E+00  0.1300E+03
  17.650  0.0000E+00  0.1300E+03
  17.660  0.0000E+00  0.1300E+03
  17.670  0.0000E+00  0.1300E+03
  17.680  0.0000E+00  0.1300E+03
  17.690  0.0000E+00  0.1300E+03
  17.700  0.0000E+00  0.1300E+03
  17.710  0.0000E+00  0.1300E+03
  17.720  0.0000E+00  0.1300E+03
  17.730  0.0000E+00  0.1300E+03
  17.740  0.0000E+00  0.1300E+03
  17.750  0.0000E+00  0.1300E+03
  17.760  0.0000E+00  0.1300E+03
  17.770  0.0000E+00  0.1300E+03
  17.780  0.0000E+00  0.1300E+03
  17.790  0.0000E+00  0.1300E+03
  17.800  0.0000E+00  0.1300E+03
  17.810  0.0000E+00  0.1300E+03
  17.820  0.0000E+00  0.1300E+03
  17.830  0.0000E+00  0.1300E+03
  17.840  0.0000E+00  0.1300E+03
  17.850  0.0000E+00  0.1300E+03
  17.860  0.0000E+00  0.1300E+03
  17.870  0.0000E+00  0.1300E+03
  17.880  0.0000E+00  0.1300E+03
  17.890  0.0000E+00  0.1300E+03
  17.900  0.0000E+00  0.1300E+03
  17.910  0.0000E+00  0.1300E+03
  17.920  0.0000E+00  0.1300E+03
  17.930  0.0000E+00  0.1300E+03
  17.940  0.0000E+00  0.1300E+03
  17.950  0.0000E+00  0.1300E+03
  17.960  0.0000E+00  0.1300E+03
  17.970  0.0000E+00  0.1300E+03
  17.980  0.0000E+00  0.1300E+03
  17.990  0.0000E+00  0.1300E+03
  18.000  0.0000E+00  0.1300E+03
  18.010  0.0000E+00  0.1300E+03
  18.020  0.0000E+00  0.1300E+03
  18.030  0.0000E+00  0.1300E+03
  18.040  0.0000E+00  0.1300E+03
  18.050  0.0000E+00  0.1300E+03
  18.060  0.0000E+00  0.1300E+03
  18.070  0.0000E+00  0.1300E+03
  18.080  0.0000E+00  0.1300E+03
  18.090  0.0000E+00  0.1300E+03
  18.100  0.0000E+00  0.1300E+03
  18.110  0.0000E+00  0.1300E+03
  18.120  0.0000E+00  0.1300E+03
  18.130  0.0000E+00  0.1300E+03
  18.140  0.0000E+00  0.1300E+03
  18.150  0.0000E+00  0.1300E+03
  18.160  0.0000E+00  0.1300E+03
  18.170  0.0000E+00  0.1300E+03
  18.180  0.0000E+00  0.1300E+03
  18.190  0.0000E+00  0.1300E+03
  18.200  0.0000E+00  0.1300E+03
  18.210  0.0000E+00  0.1300E+03
  18.220  0.0000E+00  0.1300E+03
  18.230  0.0000E+00  0.1300E+03
  18.240  0.0000E+00  0.1300E+03
  18.250  0.0000E+00  0.1300E+03
  18.260  0.0000E+00  0.1300E+03
  18.270  0.0000E+00  0.1300E+03
  18.280  0.0000E+00  0.1300E+03
  18.290  0.0000E+00  0.1300E+03
  18.300  0.0000E+00  0.1300E+03
  18.310  0.0000E+00  0.1300E+03
  18.320  0.0000E+00  0.1300E+03
  18.330  0.0000E+00  0.1300E+03
  18.340  0.0000E+00  0.1300E+03
  18.350  0.0000E+00  0.1300E+03
  18.360  0.0000E+00  0.1300E+03
  18.370  0.0000E+00  0.1300E+03
  18.380  0.0000E+00  0.1300E+03
  18.390  0.0000E+00  0.1300E+03
  18.400  0.0000E+00  0.1300E+03
  18.410  0.0000E+00  0.1300E+03
  18.420  0.0000E+00  0.1300E+03
  18.430  0.0000E+00  0.1300E+03
  18.440  0.0000E+00  0.1300E+03
  18.450  0.0000E+00  0.1300E+03
  18.460  0.0000E+00  0.1300E+03
  18.470  0.0000E+00  0.1300E+03
  18.480  0.0000E+00  0.1300E+03
  18.490  0.0000E+00  0.1300E+03
  18.500  0.0000E+00  0.1300E+03
  18.510  0.0000E+00  0.1300E+03
  18.520  0.0000E+00  0.1300E+03
  18.530  0.0000E+00  0.1300E+03
  18.540  0.0000E+00  0.1300E+03
  18.550  0.0000E+00  0.1300E+03
  18.560  0.0000E+00  0.1300E+03
  18.570  0.0000E+00  0.1300E+03
  18.580  0.0000E+00  0.1300E+03
  18.590  0.0000E+00  0.1300E+03
  18.600  0.0000E+00  0.1300E+03
  18.610  0.0000E+00  0.1300E+03
  18.620  0.0000E+00  0.1300E+03
  18.630  0.0000E+00  0.1300E+03
  18.640  0.0000E+00  0.1300E+03
  18.650  0.0000E+00  0.1300E+03
  18.660  0.0000E+00  0.1300E+03
  18.670  0.0000E+00  0.1300E+03
  18.680  0.0000E+00  0.1300E+03
  18.690  0.0000E+00  0.1300E+03
  18.700  0.0000E+00  0.1300E+03
  18.710  0.0000E+00  0.1300E+03
  18.720  0.0000E+00  0.1300E+03
  18.730  0.0000E+00  0.1300E+03
  18.740  0.0000E+00  0.1300E+03
  18.750  0.0000E+00  0.1300E+03
  18.760  0.0000E+00  0.1300E+03
  18.770  0.0000E+00  0.1300E+03
  18.780  0.0000E+00  0.1300E+03
  18.790  0.0000E+00  0.1300E+03
  18.800  0.0000E+00  0.1300E+03
  18.810  0.0000E+00  0.1300E+03
  18.820  0.0000E+00  0.1300E+03
  18.830  0.0000E+00  0.1300E+03
  18.840  0.0000E+00  0.1300E+03
  18.850  0.0000E+00  0.1300E+03
  18.860  0.0000E+00  0.1300E+03
  18.870  0.0000E+00  0.1300E+03
  18.880  0.0000E+00  0.1300E+03
  18.890  0.0000E+00  0.1300E+03
  18.900  0.0000E+00  0.1300E+03
  18.910  0.0000E+00  0.1300E+03
  18.920  0.0000E+00  0.1300E+03
  18.930  0.0000E+00  0.1300E+03
  18.940  0.0000E+00  0.1300E+03
  18.950  0.0000E+00  0.1300E+03
  18.960  0.0000E+00  0.1300E+03
  18.970  0.0000E+00  0.1300E+03
  18.980  0.0000E+00  0.1300E+03
  18.990  0.0000E+00  0.1300E+03
  19.000  0.0000E+00  0.1300E+03
  19.010  0.0000E+00  0.1300E+03
  19.020  0.0000E+00  0.1300E+03
  19.030  0.0000E+00  0.1300E+03
  19.040  0.0000E+00  0.1300E+03
  19.050  0.0000E+00  0.1300E+03
  19.060  0.0000E+00  0.1300E+03
  19.070  0.0000E+00  0.1300E+03
  19.080  0.0000E+00  0.1300E+03
  19.090  0.0000E+00  0.1300E+03
  19.100  0.0000E+00  0.1300E+03
  19.110  0.0000E+00  0.1300E+03
  19.120  0.0000E+00  0.1300E+03
  19.130  0.0000E+00  0.1300E+03
  19.140  0.0000E+00  0.1300E+03
  19.150  0.0000E+00  0.1300E+03
  19.160  0.0000E+00  0.1300E+03
  19.170  0.0000E+00  0.1300E+03
  19.180  0.0000E+00  0.1300E+03
  19.190  0.0000E+00  0.1300E+03
  19.200  0.0000E+00  0.1300E+03
  19.210  0.0000E+00  0.1300E+03
  19.220  0.0000E+00  0.1300E+03
  19.230  0.0000E+00  0.1300E+03
  19.240  0.0000E+00  0.1300E+03
  19.250  0.0000E+00  0.1300E+03
  19.260  0.0000E+00  0.1300E+03
  19.270  0.0000E+00  0.1300E+03
  19.280  0.0000E+00  0.1300E+03
  19.290  0.0000E+00  0.1300E+03
  19.300  0.0000E+00  0.1300E+03
  19.310  0.0000E+00  0.1300E+03
  19.320  0.0000E+00  0.1300E+03
  19.330  0.0000E+00  0.1300E+03
  19.340  0.0000E+00  0.1300E+03
  19.350  0.0000E+00  0.1300E+03
  19.360  0.0000E+00  0.1300E+03
  19.370  0.0000E+00  0.1300E+03
  19.380  0.0000E+00  0.1300E+03
  19.390  0.0000E+00  0.1300E+03
  19.400  0.0000E+00  0.1300E+03
  19.410  0.0000E+00  0.1300E+03
  19.420  0.0000E+00  0.1300E+03
  19.430  0.0000E+00  0.1300E+03
  19.440  0.0000E+00  0.1300E+03
  19.450  0.0000E+00  0.1300E+03
  19.460  0.0000E+00  0.1300E+03
  19.470  0.0000E+00  0.1300E+03
  19.480  0.0000E+00  0.1300E+03
  19.490  0.0000E+00  0.1300E+03
  19.500  0.0000E+00  0.1300E+03
  19.510  0.0000E+00  0.1300E+03
  19.520  0.0000E+00  0.1300E+03
  19.530  0.0000E+00  0.1300E+03
  19.540  0.0000E+00  0.1300E+03
  19.550  0.0000E+00  0.1300E+03
  19.560  0.0000E+00  0.1300E+03
  19.570  0.0000E+00  0.1300E+03
  19.580  0.0000E+00  0.1300E+03
  19.590  0.0000E+00  0.1300E+03
  19.600  0.0000E+00  0.1300E+03
  19.610  0.0000E+00  0.1300E+03
  19.620  0.0000E+00  0.1300E+03
  19.630  0.0000E+00  0.1300E+03
  19.640  0.0000E+00  0.1300E+03
  19.650  0.0000E+00  0.1300E+03
  19.660  0.0000E+00  0.1300E+03
  19.670  0.0000E+00  0.1300E+03
  19.680  0.0000E+00  0.1300E+03
  19.690  0.0000E+00  0.1300E+03
  19.700  0.0000E+00  0.1300E+03
  19.710  0.0000E+00  0.1300E+03
  19.720  0.0000E+00  0.1300E+03
  19.730  0.0000E+00  0.1300E+03
  19.740  0.0000E+00  0.1300E+03
  19.750  0.0000E+00  0.1300E+03
  19.760  0.0000E+00  0.1300E+03
  19.770  0.0000E+00  0.1300E+03
  19.780  0.0000E+00  0.1300E+03
  19.790  0.0000E+00  0.1300E+03
  19.800  0.0000E+00  0.1300E+03
  19.810  0.0000E+00  0.1300E+03
  19.820  0.0000E+00  0.1300E+03
  19.830  0.0000E+00  0.1300E+03
  19.840  0.0000E+00  0.1300E+03
  19.850  0.0000E+00  0.1300E+03
  19.860  0.0000E+00  0.1300E+03
  19.870  0.0000E+00  0.1300E+03
  19.880  0.0000E+00  0.1300E+03
  19.890  0.0000E+00  0.1300E+03
  19.900  0.0000E+00  0.1300E+03
  19.910  0.0000E+00  0.1300E+03
  19.920  0.0000E+00  0.1300E+03
  19.930  0.0000E+00  0.1300E+03
  19.940  0.0000E+00  0.1300E+03
  19.950  0.0000E+00  0.1300E+03
  19.960  0.0000E+00  0.1300E+03
  19.970  0.0000E+00  0.1300E+03
  19.980  0.0000E+00  0.1300E+03
  19.990  0.0000E+00  0.1300E+03
  20.000  0.0000E+00  0.1300E+03
  20.010  0.0000E+00  0.1300E+03
  20.020  0.0000E+00  0.1300E+03
  20.030  0.0000E+00  0.1300E+03
  20.040  0.0000E+00  0.1300E+03
  20.050  0.0000E+00  0.1300E+03
  20.060  0.0000E+00  0.1300E+03
  20.070  0.0000E+00  0.1300E+03
  20.080  0.0000E+00  0.1300E+03
  20.090  0.0000E+00  0.1300E+03
  20.100  0.0000E+00  0.1300E+03
  20.110  0.0000E+00  0.1300E+03
  20.120  0.0000E+00  0.1300E+03
  20.130  0.0000E+00  0.1300E+03
  20.140  0.0000E+00  0.1300E+03
  20.150  0.0000E+00  0.1300E+03
  20.160  0.0000E+00  0.1300E+03
  20.170  0.0000E+00  0.1300E+03
  20.180  0.0000E+00  0.1300E+03
  20.190  0.0000E+00  0.1300E+03
  20.200  0.0000E+00  0.1300E+03
  20.210  0.0000E+00  0.1300E+03
  20.220  0.0000E+00  0.1300E+03
  20.230  0.0000E+00  0.1300E+03
  20.240  0.0000E+00  0.1300E+03
  20.250  0.0000E+00  0.1300E+03
  20.260  0.0000E+00  0.1300E+03
  20.270  0.0000E+00  0.1300E+03
  20.280  0.0000E+00  0.1300E+03
  20.290  0.0000E+00  0.1300E+03
  20.300  0.0000E+00  0.1300E+03
  20.310  0.0000E+00  0.1300E+03
  20.320  0.0000E+00  0.1300E+03
  20.330  0.0000E+00  0.1300E+03
  20.340  0.0000E+00  0.1300E+03
  20.350  0.0000E+00  0.1300E+03
  20.360  0.0000E+00  0.1300E+03
  20.370  0.0000E+00  0.1300E+03
  20.380  0.0000E+00  0.1300E+03
  20.390  0.0000E+00  0.1300E+03
  20.400  0.0000E+00  0.1300E+03
  20.410  0.0000E+00  0.1300E+03
  20.420  0.0000E+00  0.1300E+03
  20.430  0.0000E+00  0.1300E+03
  20.440  0.0000E+00  0.1300E+03
  20.450  0.0000E+00  0.1300E+03
  20.460  0.0000E+00  0.1300E+03
  20.470  0.0000E+00  0.1300E+03
  20.480  0.0000E+00  0.1300E+03
  20.490  0.0000E+00  0.1300E+03
  20.500  0.0000E+00  0.1300E+03
  20.510  0.0000E+00  0.1300E+03
  20.520  0.0000E+00  0.1300E+03
  20.530  0.0000E+00  0.1300E+03
  20.540  0.0000E+00  0.1300E+03
  20.550  0.0000E+00  0.1300E+03
  20.560  0.0000E+00  0.1300E+03
  20.570  0.0000E+00  0.1300E+03
  20.580  0.0000E+00  0.1300E+03
  20.590  0.0000E+00  0.1300E+03
  20.600  0.0000E+00  0.1300E+03
  20.610  0.0000E+00  0.1300E+03
  20.620  0.0000E+00  0.1300E+03
  20.630  0.0000E+00  0.1300E+03
  20.640  0.0000E+00  0.1300E+03
  20.650  0.0000E+00  0.1300E+03
  20.660  0.0000E+00  0.1300E+03
  20.670  0.0000E+00  0.1300E+03
  20.680  0.0000E+00  0.1300E+03
  20.690  0.0000E+00  0.1300E+03
  20.700  0.0000E+00  0.1300E+03
  20.710  0.0000E+00  0.1300E+03
  20.720  0.0000E+00  0.1300E+03
  20.730  0.0000E+00  0.1300E+03
  20.740  0.0000E+00  0.1300E+03
  20.750  0.0000E+00  0.1300E+03
  20.760  0.0000E+00  0.1300E+03
  20.770  0.0000E+00  0.1300E+03
  20.780  0.0000E+00  0.1300E+03
  20.790  0.0000E+00  0.1300E+03
  20.800  0.0000E+00  0.1300E+03
  20.810  0.0000E+00  0.1300E+03
  20.820  0.0000E+00  0.1300E+03
  20.830  0.0000E+00  0.1300E+03
  20.840  0.0000E+00  0.1300E+03
  20.850  0.0000E+00  0.1300E+03
  20.860  0.0000E+00  0.1300E+03
  20.870  0.0000E+00  0.1300E+03
  20.880  0.0000E+00  0.1300E+03
  20.890  0.0000E+00  0.1300E+03
  20.900  0.0000E+00  0.1300E+03
  20.910  0.0000E+00  0.1300E+03
  20.920  0.0000E+00  0.1300E+03
  20.930  0.0000E+00  0.1300E+03
  20.940  0.0000E+00  0.1300E+03
  20.950  0.0000E+00  0.1300E+03
  20.960  0.0000E+00  0.1300E+03
  20.970  0.0000E+00  0.1300E+03
  20.980  0.0000E+00  0.1300E+03
  20.990  0.0000E+00  0.1300E+03
  21.000  0.0000E+00  0.1300E+03
  21.010  0.0000E+00  0.1300E+03
  21.020  0.0000E+00  0.1300E+03
  21.030  0.0000E+00  0.1300E+03
  21.040  0.0000E+00  0.1300E+03
  21.050  0.0000E+00  0.1300E+03
  21.060  0.0000E+00  0.1300E+03
  21.070  0.0000E+00  0.1300E+03
  21.080  0.0000E+00  0.1300E+03
  21.090  0.0000E+00  0.1300E+03
  21.100  0.0000E+00  0.1300E+03
  21.110  0.0000E+00  0.1300E+03
  21.120  0.0000E+00  0.1300E+03
  21.130  0.0000E+00  0.1300E+03
  21.140  0.0000E+00  0.1300E+03
  21.150  0.0000E+00  0.1300E+03
  21.160  0.0000E+00  0.1300E+03
  21.170  0.0000E+00  0.1300E+03
  21.180  0.0000E+00  0.1300E+03
  21.190  0.0000E+00  0.1300E+03
  21.200  0.0000E+00  0.1300E+03
  21.210  0.0000E+00  0.1300E+03
  21.220  0.0000E+00  0.1300E+03
  21.230  0.0000E+00  0.1300E+03
  21.240  0.0000E+00  0.1300E+03
  21.250  0.0000E+00  0.1300E+03
  21.260  0.0000E+00  0.1300E+03
  21.270  0.0000E+00  0.1300E+03
  21.280  0.0000E+00  0.1300E+03
  21.290  0.0000E+00  0.1300E+03
  21.300  0.0000E+00  0.1300E+03
  21.310  0.0000E+00  0.1300E+03
  21.320  0.0000E+00  0.1300E+03
  21.330  0.0000E+00  0.1300E+03
  21.340  0.0000E+00  0.1300E+03
  21.350  0.0000E+00  0.1300E+03
  21.360  0.0000E+00  0.1300E+03
  21.370  0.0000E+00  0.1300E+03
  21.380  0.0000E+00  0.1300E+03
  21.390  0.0000E+00  0.1300E+03
  21.400  0.0000E+00  0.1300E+03
  21.410  0.0000E+00  0.1300E+03
  21.420  0.0000E+00  0.1300E+03
  21.430  0.0000E+00  0.1300E+03
  21.440  0.0000E+00  0.1300E+03
  21.450  0.0000E+00  0.1300E+03
  21.460  0.0000E+00  0.1300E+03
  21.470  0.0000E+00  0.1300E+03
  21.480  0.0000E+00  0.1300E+03
  21.490  0.0000E+00  0.1300E+03
  21.500  0.0000E+00  0.1300E+03
  21.510  0.0000E+00  0.1300E+03
  21.520  0.0000E+00  0.1300E+03
  21.530  0.0000E+00  0.1300E+03
  21.540  0.0000E+00  0.1300E+03
  21.550  0.0000E+00  0.1300E+03
  21.560  0.0000E+00  0.1300E+03
  21.570  0.0000E+00  0.1300E+03
  21.580  0.0000E+00  0.1300E+03
  21.590  0.0000E+00  0.1300E+03
  21.600  0.0000E+00  0.1300E+03
  21.610  0.0000E+00  0.1300E+03
  21.620  0.0000E+00  0.1300E+03
  21.630  0.0000E+00  0.1300E+03
  21.640  0.0000E+00  0.1300E+03
  21.650  0.0000E+00  0.1300E+03
  21.660  0.0000E+00  0.1300E+03
  21.670  0.0000E+00  0.1300E+03
  21.680  0.0000E+00  0.1300E+03
  21.690  0.0000E+00  0.1300E+03
  21.700  0.0000E+00  0.1300E+03
  21.710  0.0000E+00  0.1300E+03
  21.720  0.0000E+00  0.1300E+03
  21.730  0.0000E+00  0.1300E+03
  21.740  0.0000E+00  0.1300E+03
  21.750  0.0000E+00  0.1300E+03
  21.760  0.0000E+00  0.1300E+03
  21.770  0.0000E+00  0.1300E+03
  21.780  0.0000E+00  0.1300E+03
  21.790  0.0000E+00  0.1300E+03
  21.800  0.0000E+00  0.1300E+03
  21.810  0.0000E+00  0.1300E+03
  21.820  0.0000E+00  0.1300E+03
  21.830  0.0000E+00  0.1300E+03
  21.840  0.0000E+00  0.1300E+03
  21.850  0.0000E+00  0.1300E+03
  21.860  0.0000E+00  0.1300E+03
  21.870  0.0000E+00  0.1300E+03
  21.880  0.0000E+00  0.1300E+03
  21.890  0.0000E+00  0.1300E+03
  21.900  0.0000E+00  0.1300E+03
  21.910  0.0000E+00  0.1300E+03
  21.920  0.0000E+00  0.1300E+03
  21.930  0.0000E+00  0.1300E+03
  21.940  0.0000E+00  0.1300E+03
  21.950  0.0000E+00  0.1300E+03
  21.960  0.0000E+00  0.1300E+03
  21.970  0.0000E+00  0.1300E+03
  21.980  0.0000E+00  0.1300E+03
  21.990  0.0000E+00  0.1300E+03
  22.000  0.0000E+00  0.1300E+03
